probe voltage (V), probe current (A), resistance (9.9e37 if not enabled) , timestamp , status word ,
-3.500000E+01,-2.516267E-07,+9.910000E+37,+2.485757E+03,+2.150800E+04,
-3.490000E+01,-2.288967E-07,+9.910000E+37,+2.486816E+03,+2.150800E+04,
-3.480000E+01,-2.152583E-07,+9.910000E+37,+2.487893E+03,+2.150800E+04,
-3.470000E+01,-2.056614E-07,+9.910000E+37,+2.488954E+03,+2.150800E+04,
-3.460000E+01,-1.960640E-07,+9.910000E+37,+2.490030E+03,+2.150800E+04,
-3.450000E+01,-1.884872E-07,+9.910000E+37,+2.491108E+03,+2.150800E+04,
-3.440000E+01,-1.753543E-07,+9.910000E+37,+2.492166E+03,+2.150800E+04,
-3.430000E+01,-1.657570E-07,+9.910000E+37,+2.493222E+03,+2.150800E+04,
-3.420000E+01,-1.561598E-07,+9.910000E+37,+2.494281E+03,+2.150800E+04,
-3.410000E+01,-1.420166E-07,+9.910000E+37,+2.495340E+03,+2.150800E+04,
-3.400000E+01,-1.344398E-07,+9.910000E+37,+2.496397E+03,+2.150800E+04,
-3.390000E+01,-1.248426E-07,+9.910000E+37,+2.497457E+03,+2.150800E+04,
-3.380000E+01,-1.142351E-07,+9.910000E+37,+2.498516E+03,+2.150800E+04,
-3.370000E+01,-1.096890E-07,+9.910000E+37,+2.499573E+03,+2.150800E+04,
-3.360000E+01,-9.706113E-08,+9.910000E+37,+2.500633E+03,+2.150800E+04,
-3.350000E+01,-8.190768E-08,+9.910000E+37,+2.501704E+03,+2.150800E+04,
-3.340000E+01,-6.877470E-08,+9.910000E+37,+2.502763E+03,+2.150800E+04,
-3.330000E+01,-6.170305E-08,+9.910000E+37,+2.503819E+03,+2.150800E+04,
-3.320000E+01,-4.402400E-08,+9.910000E+37,+2.504877E+03,+2.150800E+04,
-3.310000E+01,-3.796265E-08,+9.910000E+37,+2.505939E+03,+2.150800E+04,
-3.300000E+01,-2.836541E-08,+9.910000E+37,+2.507021E+03,+2.150800E+04,
-3.290000E+01,-2.533469E-08,+9.910000E+37,+2.508084E+03,+2.150800E+04,
-3.280000E+01,-1.018124E-08,+9.910000E+37,+2.509143E+03,+2.150800E+04,
-3.270000E+01,+9.313226E-10,+9.910000E+37,+2.510230E+03,+2.150800E+04,
-3.260000E+01,+2.446515E-09,+9.910000E+37,+2.511289E+03,+2.150800E+04,
-3.250000E+01,+1.305287E-08,+9.910000E+37,+2.512350E+03,+2.150800E+04,
-3.240000E+01,+2.769977E-08,+9.910000E+37,+2.513409E+03,+2.150800E+04,
-3.230000E+01,+3.931631E-08,+9.910000E+37,+2.514469E+03,+2.150800E+04,
-3.220000E+01,+4.790241E-08,+9.910000E+37,+2.515527E+03,+2.150800E+04,
-3.210000E+01,+5.547833E-08,+9.910000E+37,+2.516587E+03,+2.150800E+04,
-3.200000E+01,+6.204413E-08,+9.910000E+37,+2.517647E+03,+2.150800E+04,
-3.190000E+01,+7.568093E-08,+9.910000E+37,+2.518726E+03,+2.150800E+04,
-3.180000E+01,+8.123666E-08,+9.910000E+37,+2.519784E+03,+2.150800E+04,
-3.170000E+01,+8.426695E-08,+9.910000E+37,+2.520845E+03,+2.150800E+04,
-3.160000E+01,+9.234799E-08,+9.910000E+37,+2.521906E+03,+2.150800E+04,
-3.150000E+01,+1.115406E-07,+9.910000E+37,+2.522965E+03,+2.150800E+04,
-3.140000E+01,+1.145709E-07,+9.910000E+37,+2.524024E+03,+2.150800E+04,
-3.130000E+01,+1.140658E-07,+9.910000E+37,+2.525083E+03,+2.150800E+04,
-3.120000E+01,+1.378039E-07,+9.910000E+37,+2.526142E+03,+2.150800E+04,
-3.110000E+01,+1.393191E-07,+9.910000E+37,+2.527198E+03,+2.150800E+04,
-3.100000E+01,+1.509355E-07,+9.910000E+37,+2.528260E+03,+2.150800E+04,
-3.090000E+01,+1.600267E-07,+9.910000E+37,+2.529334E+03,+2.150800E+04,
-3.080000E+01,+1.676027E-07,+9.910000E+37,+2.530394E+03,+2.150800E+04,
-3.070000E+01,+1.766938E-07,+9.910000E+37,+2.531451E+03,+2.150800E+04,
-3.060000E+01,+1.807344E-07,+9.910000E+37,+2.532527E+03,+2.150800E+04,
-3.050000E+01,+1.888154E-07,+9.910000E+37,+2.533589E+03,+2.150800E+04,
-3.040000E+01,+1.928557E-07,+9.910000E+37,+2.534645E+03,+2.150800E+04,
-3.030000E+01,+1.979063E-07,+9.910000E+37,+2.535703E+03,+2.150800E+04,
-3.020000E+01,+2.196243E-07,+9.910000E+37,+2.536781E+03,+2.150800E+04,
-3.010000E+01,+2.206344E-07,+9.910000E+37,+2.537843E+03,+2.150800E+04,
-3.000000E+01,+2.373016E-07,+9.910000E+37,+2.538929E+03,+2.150800E+04

current through plasma (-mA) <tab> voltage across plasma (-V) <tab> time (sec)
1.939609	674.434360	0.001000
1.934384	674.828315	0.102000
1.944237	674.138438	0.201000
1.940530	674.409084	0.301000
1.931601	675.077466	0.402000
1.938630	674.458893	0.501000
1.945064	674.047950	0.601000
1.934795	674.859717	0.701000
1.934088	674.934325	0.801000
1.944020	674.143437	0.901000
1.939581	674.365107	1.001000
1.931925	674.981343	1.101000
1.939666	674.518292	1.201000
1.943907	674.233764	1.306000
1.933487	674.912113	1.401000
1.933185	674.831888	1.501000
1.944224	674.079317	1.601000
1.939934	674.445344	1.701000
1.932110	675.094402	1.801000
1.939303	674.525285	1.901000
1.942481	674.184012	2.001000
1.933096	674.952491	2.101000
1.935035	674.845283	2.201000
1.944901	674.116453	2.301000
1.938672	674.525134	2.401000
1.930285	675.106139	2.501000
1.939578	674.511281	2.601000
1.942983	674.291380	2.701000
1.933361	674.975651	2.801000
1.935914	674.735916	2.901000
1.944161	674.053974	3.001000
1.937580	674.644412	3.101000
1.931024	675.200902	3.201000
1.941363	674.424013	3.301000
1.944044	674.136674	3.401000
1.932533	674.902725	3.501000
1.936407	674.710662	3.601000
1.944923	674.127156	3.701000
1.937137	674.705280	3.801000
1.932577	674.992251	3.901000
1.942087	674.209994	4.001000
1.943020	674.228143	4.101000
1.932817	675.001842	4.201000
1.936531	674.742528	4.301000
1.944545	674.114873	4.401000
1.936049	674.689573	4.501000
1.932919	674.988444	4.601000
1.943152	674.244383	4.701000
1.942530	674.284162	4.804000
1.931986	675.023781	4.901000
1.936543	674.639464	5.001000
1.945349	674.064963	5.101000
1.935884	674.779342	5.201000
1.933233	674.983390	5.301000
1.943643	674.239642	5.401000
1.940147	674.369390	5.501000
1.931573	675.063023	5.601000
1.938906	674.553953	5.701000
1.945339	674.090560	5.801000
1.934829	674.874496	5.901000
1.932589	674.939237	6.001000
1.943566	674.153766	6.101000
1.940402	674.365874	6.201000
1.931922	675.080240	6.301000
1.939286	674.558409	6.401000
1.942874	674.190693	6.501000
1.933065	674.976123	6.601000
1.933963	674.921461	6.701000
1.944892	674.135559	6.801000
1.940014	674.487217	6.901000
1.930599	675.090254	7.002000
1.939152	674.493615	7.101000
1.943524	674.236538	7.201000
1.932675	675.044271	7.301000
1.935409	674.843532	7.401000
1.944629	674.022181	7.501000
1.938100	674.573605	7.602000
1.930418	675.205629	7.701000
1.939760	674.574820	7.801000
1.942843	674.288019	7.901000
1.932576	674.914968	8.001000
1.935568	674.757051	8.101000
1.944466	674.153869	8.201000
1.937591	674.718291	8.301000
1.930676	675.215688	8.401000
1.941050	674.316249	8.501000
1.942900	674.206001	8.601000
1.932665	675.021483	8.701000
1.936448	674.786932	8.801000
1.944368	674.158997	8.901000
1.935886	674.689721	9.001000
1.931874	675.082655	9.101000
1.943127	674.299576	9.201000
1.942382	674.330525	9.301000
1.932087	675.077268	9.403000
1.936957	674.604350	9.501000
1.945104	674.088014	9.601000
1.936418	674.796022	9.701000
1.932912	675.056588	9.801000
1.943243	674.254988	9.901000
1.940704	674.287758	10.001000
1.931416	675.066182	10.101000
1.938509	674.608662	10.201000
1.945337	674.105047	10.301000
1.935974	674.810131	10.401000
1.931630	675.034113	10.501000
1.943112	674.254865	10.601000
1.940957	674.437223	10.701000
1.932775	675.012782	10.801000
1.939509	674.526857	10.901000
1.943931	674.119062	11.001000
1.934010	674.921044	11.101000
1.932515	675.074039	11.201000
1.943626	674.206812	11.301000
1.941525	674.348267	11.401000
1.931238	675.021604	11.501000
1.938681	674.581991	11.601000
1.943838	674.218892	11.701000
1.933508	674.988755	11.802000
1.933908	674.968159	11.901000
1.943954	674.110018	12.001000
1.939860	674.464661	12.101000
1.931240	675.136148	12.201000
1.938767	674.618383	12.301000
1.943483	674.277922	12.401000
1.933120	674.937281	12.501000
1.934012	674.904815	12.601000
1.944568	674.142636	12.701000
1.938668	674.601188	12.801000
1.931088	675.194583	12.902000
1.939445	674.486905	13.001000
1.943067	674.235700	13.101000
1.933208	674.998624	13.201000
1.935105	674.880671	13.301000
1.944220	674.209026	13.401000
1.936475	674.677998	13.511000
1.931055	675.116953	13.601000
1.941448	674.421149	13.701000
1.942640	674.339580	13.801000
1.932816	675.077612	13.901000
1.935105	674.779165	14.001000
1.944561	674.125162	14.101000
1.936470	674.768132	14.201000
1.932535	675.094839	14.301000
1.942570	674.372687	14.401000
1.940377	674.373465	14.505000
1.930751	675.107022	14.601000
1.937437	674.678852	14.701000
1.945435	674.113781	14.801000
1.935934	674.852554	14.901000
1.932037	675.008456	15.001000
1.942534	674.283127	15.101000
1.940459	674.466846	15.201000
1.931417	675.167808	15.301000
1.939612	674.550075	15.401000
1.944563	674.047421	15.501000
1.934267	674.903680	15.601000
1.932846	675.061130	15.701000
1.943731	674.273206	15.801000
1.940360	674.487347	15.901000
1.931701	674.976766	16.001000
1.939750	674.496397	16.101000
1.943927	674.258836	16.201000
1.932940	675.111956	16.301000
1.933926	674.986443	16.402000
1.944033	674.111900	16.501000
1.938325	674.575326	16.601000
1.931337	675.185573	16.701000
1.940587	674.520885	16.801000
1.942645	674.340319	16.901000
1.931614	675.057462	17.001000
1.935061	674.868802	17.101000
1.945131	674.172755	17.201000
1.937574	674.693454	17.301000
1.931478	675.171003	17.401000
1.940532	674.403015	17.501000
1.941765	674.374273	17.601000
1.932053	675.132132	17.701000
1.936881	674.771643	17.801000
1.944509	674.194097	17.901000
1.934889	674.812685	18.002000
1.931163	675.180449	18.101000
1.942953	674.325320	18.201000
1.941827	674.401396	18.301000
1.931097	675.195395	18.401000
1.936626	674.677295	18.502000
1.943741	674.216146	18.601000
1.935217	674.866861	18.701000
1.933154	675.050908	18.801000
1.943721	674.285044	18.901000
1.940026	674.468888	19.001000
1.930423	675.194852	19.102000
1.938123	674.652644	19.201000
1.944270	674.196357	19.301000
1.934704	674.941038	19.401000
1.933191	674.976833	19.501000
1.943377	674.272342	19.601000
1.939118	674.579345	19.701000
1.931193	675.190677	19.801000
1.939931	674.569469	19.901000
1.944219	674.133393	20.001000
1.933522	674.968726	20.101000
1.934097	674.982455	20.201000
1.943486	674.317650	20.301000
1.938330	674.696762	20.401000
1.931422	675.079152	20.501000
1.941197	674.376579	20.601000
1.943421	674.287506	20.701000
1.932196	675.167518	20.802000
1.934930	674.996732	20.901000
1.944123	674.147596	21.001000
1.937863	674.614587	21.101000
1.932348	675.081188	21.201000
1.941509	674.457796	21.301000
1.942000	674.452389	21.402000
1.930973	675.133737	21.502000
1.935754	674.817457	21.601000
1.944646	674.205654	21.701000
1.936809	674.810657	21.801000
1.931929	675.184365	21.901000
1.941403	674.357819	22.001000
1.941099	674.397930	22.101000
1.931547	675.199937	22.201000
1.936874	674.837073	22.301000
1.944298	674.227578	22.401000
1.934534	674.852163	22.501000
1.931608	675.112613	22.601000
1.942334	674.429862	22.701000
1.940765	674.516037	22.801000
1.931361	675.215145	22.901000
1.936898	674.701095	23.001000
1.942892	674.282633	23.101000
1.934022	675.011703	23.201000
1.933010	675.116184	23.301000
1.943699	674.300769	23.401000
1.939399	674.520219	23.501000
1.930088	675.230616	23.604000
1.937919	674.758180	23.701000
1.943635	674.296447	23.801000
1.934384	674.959736	23.901000
1.933299	674.977484	24.001000
1.943415	674.281658	24.101000
1.938595	674.710825	24.201000
1.930268	675.289681	24.301000
1.939928	674.563969	24.401000
1.943387	674.203057	24.501000
1.933317	675.002253	24.604000
1.934452	675.017215	24.701000
1.943735	674.324658	24.801000
1.938034	674.692340	24.901000
1.930930	675.156366	25.001000
1.940757	674.468407	25.101000
1.943743	674.288362	25.201000
1.932961	675.105967	25.301000
1.934915	674.989829	25.401000
1.943729	674.235954	25.501000
1.937022	674.726524	25.601000
1.932098	675.124470	25.701000
1.942007	674.397360	25.801000
1.942755	674.387077	25.901000
1.931320	675.182624	26.001000
1.935225	674.891636	26.101000
1.944656	674.201528	26.201000
1.937129	674.749485	26.301000
1.931918	675.202390	26.401000
1.941109	674.418365	26.501000
1.941173	674.427970	26.603000
1.931616	675.176650	26.701000
1.937017	674.819750	26.801000
1.944514	674.268763	26.901000
1.934982	674.858963	27.001000
1.931810	675.115039	27.101000
1.941901	674.428377	27.201000
1.941141	674.504031	27.301000
1.931503	675.251749	27.401000
1.936591	674.792700	27.501000
1.943164	674.262965	27.601000
1.933983	674.972347	27.701000
1.932566	675.148808	27.801000
1.943137	674.393883	27.901000
1.939842	674.531666	28.001000
1.930729	675.210565	28.101000
1.937333	674.763810	28.201000
1.942986	674.397217	28.301000
1.933838	675.052756	28.401000
1.933120	675.014707	28.501000
1.943450	674.272966	28.601000
1.938784	674.677596	28.701000
1.930270	675.378643	28.801000
1.938224	674.756970	28.901000
1.943178	674.245987	29.001000
1.933264	674.980628	29.101000
1.934324	675.051175	29.201000
1.943356	674.401032	29.301000
1.937767	674.804227	29.401000
1.930207	675.240817	29.501000
1.939601	674.545268	29.601000
1.943429	674.345469	29.701000
1.932858	675.153362	29.801000
1.934740	675.039160	29.901000
1.943386	674.286916	30.001000
1.937187	674.743677	30.101000
1.931379	675.248969	30.201000
1.941190	674.529552	30.301000
1.943163	674.371070	30.401000
1.931728	675.157955	30.501000
1.935346	674.900895	30.601000
1.944432	674.306712	30.701000
1.937489	674.798114	30.801000
1.932131	675.186478	30.901000
1.941273	674.443412	31.001000
1.941454	674.438544	31.101000
1.931572	675.250154	31.201000
1.937011	674.840719	31.301000
1.944807	674.263327	31.402000
1.935232	674.887923	31.501000
1.931383	675.178318	31.601000
1.941820	674.469132	31.701000
1.941278	674.512273	31.801000
1.931892	675.197546	31.901000
1.937295	674.786347	32.001000
1.943446	674.317859	32.101000
1.933898	675.020253	32.201000
1.932200	675.161274	32.301000
1.943162	674.379457	32.401000
1.939887	674.577837	32.501000
1.930537	675.272796	32.601000
1.938218	674.781480	32.701000
1.943047	674.448624	32.801000
1.933252	675.164000	32.902000
1.933752	675.159439	33.001000
1.943606	674.324259	33.101000
1.938515	674.733205	33.201000
1.930297	675.331618	33.301000
1.939106	674.717764	33.401000
1.942658	674.507105	33.501000
1.932553	675.177307	33.601000
1.935349	675.014350	33.701000
1.944522	674.351363	33.801000
1.936406	674.871990	33.901000
1.932488	675.603286	34.001000
1.943385	674.857595	34.101000
1.941923	674.381964	34.201000
1.932229	675.161731	34.301000
1.935657	674.976534	34.401000
1.943842	674.400344	34.501000
1.935843	674.952955	34.601000
1.931423	675.230554	34.701000
1.941859	674.406298	34.801000
1.941621	674.533787	34.901000
1.931478	675.297652	35.002000
1.936683	674.932725	35.101000
1.944077	674.359519	35.201000
1.934973	674.994698	35.301000
1.931919	675.185670	35.401000
1.942943	674.422292	35.501000
1.940571	674.607472	35.601000
1.931220	675.340292	35.701000
1.937940	674.818079	35.801000
1.944359	674.249563	35.902000
1.934747	674.984195	36.001000
1.933058	675.145905	36.101000
1.943132	674.429965	36.201000
1.938977	674.669878	36.301000
1.931271	675.211647	36.402000
1.939659	674.660295	36.501000
1.943835	674.378111	36.601000
1.933331	675.181486	36.701000
1.933147	675.146172	36.801000
1.943470	674.283540	36.901000
1.938221	674.743674	37.001000
1.931707	675.293012	37.101000
1.940481	674.670289	37.201000
1.942081	674.454672	37.301000
1.931391	675.208610	37.401000
1.933990	675.085430	37.501000
1.944007	674.374707	37.601000
1.937350	674.875781	37.701000
1.930953	675.312050	37.801000
1.940135	674.577015	37.901000
1.940843	674.541191	38.001000
1.930648	675.367187	38.101000
1.935685	675.003330	38.201000
1.944030	674.326892	38.301000
1.935141	674.938811	38.401000
1.930672	675.359363	38.501000
1.941070	674.611408	38.601000
1.940617	674.599829	38.701000
1.931279	675.249765	38.801000
1.936323	674.875205	38.901000
1.943719	674.400888	39.001000
1.934359	675.112850	39.101000
1.931341	675.349924	39.201000
1.941944	674.444187	39.301000
1.940185	674.549421	39.401000
1.930648	675.339750	39.501000
1.937436	674.911829	39.601000
1.943729	674.407146	39.701000
1.934059	675.053590	39.801000
1.932637	675.167035	39.901000
1.943078	674.455893	40.001000
1.939690	674.705402	40.101000
1.930653	675.388773	40.201000
1.938036	674.803701	40.301000
1.943635	674.358094	40.401000
1.934150	675.122668	40.501000
1.933927	675.132057	40.601000
1.943670	674.425798	40.701000
1.938020	674.790936	40.801000
1.930429	675.302611	40.901000
1.940127	674.679069	41.001000
1.943956	674.386329	41.101000
1.933372	675.158945	41.201000
1.934084	675.084674	41.302000
1.943073	674.385239	41.401000
1.937211	674.866198	41.501000
1.931624	675.298816	41.601000
1.941133	674.623073	41.701000
1.942586	674.481895	41.802000
1.931034	675.274121	41.901000
1.934309	675.065375	42.001000
1.943925	674.381037	42.101000
1.936816	674.912751	42.201000
1.931375	675.320176	42.301000
1.941089	674.547316	42.401000
1.940900	674.573872	42.501000
1.930778	675.355706	42.601000
1.935865	674.998198	42.701000
1.944418	674.329809	42.801000
1.934889	674.973726	42.901000
1.931662	675.289789	43.001000
1.941581	674.590876	43.105000
1.939704	674.717269	43.201000
1.930634	675.353304	43.301000
1.936845	674.823554	43.401000
1.943695	674.393714	43.501000
1.934106	675.121114	43.601000
1.931784	675.365567	43.701000
1.942811	674.493747	43.801000
1.939473	674.592107	43.901000
1.930726	675.322398	44.001000
1.937868	674.882698	44.101000
1.943030	674.547086	44.201000
1.933121	675.180745	44.301000
1.932589	675.158836	44.401000
1.943531	674.389630	44.501000
1.938966	674.783675	44.601000
1.930796	675.420983	44.701000
1.938950	674.734003	44.807000
1.942491	674.457243	44.901000
1.933103	675.180330	45.001000
1.934795	675.103634	45.101000
1.944268	674.384936	45.201000
1.937388	674.827999	45.301000
1.929924	675.339358	45.401000
1.939891	674.711390	45.501000
1.943282	674.483060	45.601000
1.933169	675.188601	45.701000
1.935270	675.007941	45.801000
1.943297	674.346390	45.901000
1.936113	674.950962	46.001000
1.931023	675.384366	46.101000
1.941715	674.602540	46.201000
1.942688	674.458556	46.301000
1.931614	675.239003	46.401000
1.935345	675.040348	46.501000
1.943563	674.462102	46.601000
1.935869	675.007366	46.701000
1.931836	675.267541	46.801000
1.941763	674.508935	46.901000
1.941293	674.611031	47.001000
1.931077	675.363312	47.101000
1.935627	675.014565	47.201000
1.944016	674.366441	47.301000
1.934722	674.997266	47.401000
1.931725	675.326335	47.501000
1.942068	674.604059	47.601000
1.940050	674.702077	47.701000
1.930358	675.398658	47.802000
1.936591	674.896686	47.901000
1.943661	674.449082	48.001000
1.934206	675.142505	48.102000
1.932101	675.335088	48.201000
1.941920	674.570923	48.301000
1.939557	674.650108	48.401000
1.930863	675.370431	48.501000
1.937558	674.906303	48.601000
1.943417	674.478752	48.701000
1.933352	675.216279	48.801000
1.931296	675.327209	48.901000
1.942895	674.486413	49.001000
1.940409	674.656445	49.101000
1.930793	675.371466	49.201000
1.937040	674.963624	49.301000
1.942285	674.489370	49.401000
1.933524	675.179440	49.501000
1.933204	675.225791	49.601000
1.943664	674.462167	49.701000
1.939208	674.758194	49.801000
1.929601	675.388169	49.901000
1.937683	674.867605	50.001000
1.943602	674.458770	50.106000
1.933732	675.189449	50.201000
1.933594	675.201087	50.301000
1.942626	674.430825	50.401000
1.938288	674.773817	50.501000
1.930645	675.408444	50.601000
1.939544	674.774386	50.701000
1.943912	674.436682	50.801000
1.933311	675.115048	50.901000
1.933670	675.157456	51.001000
1.943287	674.490484	51.102000
1.937868	674.894536	51.201000
1.930976	675.390940	51.301000
1.940131	674.626659	51.401000
1.943346	674.436853	51.501000
1.932372	675.292366	51.601000
1.934106	675.187059	51.701000
1.943495	674.430884	51.801000
1.937205	674.790643	51.901000
1.931259	675.333482	52.001000
1.940832	674.689452	52.101000
1.941944	674.615252	52.201000
1.931816	675.311612	52.301000
1.934946	674.993505	52.401000
1.943795	674.394564	52.501000
1.936182	675.038717	52.601000
1.931148	675.410537	52.701000
1.940931	674.659663	52.801000
1.940600	674.563654	52.901000
1.931473	675.307257	53.001000
1.936144	675.030401	53.101000
1.943813	674.441127	53.201000
1.934728	675.108762	53.301000
1.929981	675.397216	53.401000
1.941630	674.605103	53.501000
1.940816	674.701768	53.601000
1.931170	675.368655	53.701000
1.936703	674.973049	53.801000
1.942470	674.465532	53.901000
1.933267	675.254902	54.001000
1.932039	675.360476	54.102000
1.943061	674.542665	54.201000
1.939959	674.694151	54.301000
1.929869	675.395804	54.401000
1.936512	675.005882	54.501000
1.942698	674.571653	54.602000
1.933585	675.234838	54.701000
1.933525	675.232812	54.801000
1.943209	674.443021	54.901000
1.938354	674.863695	55.001000
1.930443	675.427266	55.101000
1.938539	674.845608	55.201000
1.943462	674.516767	55.301000
1.933239	675.161307	55.401000
1.933851	675.213120	55.501000
1.943395	674.484822	55.601000
1.938131	674.874225	55.701000
1.930458	675.455729	55.801000
1.939639	674.725269	55.901000
1.943139	674.499495	56.001000
