probe voltage (V), probe current (A), resistance (9.9e37 if not enabled) , timestamp , status word ,
-6.000000E+01,-6.163132E-07,+9.910000E+37,+2.226273E+03,+2.150800E+04,
-5.900000E+01,-5.799454E-07,+9.910000E+37,+2.227333E+03,+2.150800E+04,
-5.800000E+01,-5.440825E-07,+9.910000E+37,+2.228392E+03,+2.150800E+04,
-5.700000E+01,-5.021586E-07,+9.910000E+37,+2.229479E+03,+2.150800E+04,
-5.600000E+01,-4.668006E-07,+9.910000E+37,+2.230541E+03,+2.150800E+04,
-5.500000E+01,-4.248764E-07,+9.910000E+37,+2.231601E+03,+2.150800E+04,
-5.400000E+01,-3.844677E-07,+9.910000E+37,+2.232680E+03,+2.150800E+04,
-5.300000E+01,-3.445639E-07,+9.910000E+37,+2.233765E+03,+2.150800E+04,
-5.200000E+01,-3.011243E-07,+9.910000E+37,+2.234822E+03,+2.150800E+04,
-5.100000E+01,-2.662721E-07,+9.910000E+37,+2.235881E+03,+2.150800E+04,
-5.000000E+01,-2.299038E-07,+9.910000E+37,+2.236959E+03,+2.150800E+04,
-4.900000E+01,-1.874747E-07,+9.910000E+37,+2.238019E+03,+2.150800E+04,
-4.800000E+01,-1.521170E-07,+9.910000E+37,+2.239079E+03,+2.150800E+04,
-4.700000E+01,-1.137287E-07,+9.910000E+37,+2.240135E+03,+2.150800E+04,
-4.600000E+01,-8.342204E-08,+9.910000E+37,+2.241192E+03,+2.150800E+04,
-4.500000E+01,-5.261033E-08,+9.910000E+37,+2.242254E+03,+2.150800E+04,
-4.400000E+01,-2.280884E-08,+9.910000E+37,+2.243313E+03,+2.150800E+04,
-4.300000E+01,+3.456617E-09,+9.910000E+37,+2.244373E+03,+2.150800E+04,
-4.200000E+01,+3.123486E-08,+9.910000E+37,+2.245436E+03,+2.150800E+04,
-4.100000E+01,+5.143721E-08,+9.910000E+37,+2.246515E+03,+2.150800E+04,
-4.000000E+01,+7.568004E-08,+9.910000E+37,+2.247575E+03,+2.150800E+04,
-3.900000E+01,+1.009330E-07,+9.910000E+37,+2.248633E+03,+2.150800E+04,
-3.800000E+01,+1.231556E-07,+9.910000E+37,+2.249694E+03,+2.150800E+04,
-3.700000E+01,+1.403276E-07,+9.910000E+37,+2.250774E+03,+2.150800E+04,
-3.600000E+01,+1.660856E-07,+9.910000E+37,+2.251857E+03,+2.150800E+04,
-3.500000E+01,+1.883082E-07,+9.910000E+37,+2.252919E+03,+2.150800E+04,
-3.400000E+01,+2.115408E-07,+9.910000E+37,+2.253996E+03,+2.150800E+04,
-3.300000E+01,+2.398242E-07,+9.910000E+37,+2.255053E+03,+2.150800E+04,
-3.200000E+01,+2.630568E-07,+9.910000E+37,+2.256112E+03,+2.150800E+04,
-3.100000E+01,+2.963907E-07,+9.910000E+37,+2.257195E+03,+2.150800E+04,
-3.000000E+01,+3.231588E-07,+9.910000E+37,+2.258257E+03,+2.150800E+04,
-2.900000E+01,+3.585128E-07,+9.910000E+37,+2.259334E+03,+2.150800E+04,
-2.800000E+01,+3.948772E-07,+9.910000E+37,+2.260390E+03,+2.150800E+04,
-2.700000E+01,+4.403325E-07,+9.910000E+37,+2.261448E+03,+2.150800E+04,
-2.600000E+01,+4.761914E-07,+9.910000E+37,+2.262507E+03,+2.150800E+04,
-2.500000E+01,+5.201317E-07,+9.910000E+37,+2.263570E+03,+2.150800E+04,
-2.400000E+01,+5.691225E-07,+9.910000E+37,+2.264632E+03,+2.150800E+04,
-2.300000E+01,+6.155879E-07,+9.910000E+37,+2.265693E+03,+2.150800E+04,
-2.200000E+01,+6.701345E-07,+9.910000E+37,+2.266751E+03,+2.150800E+04,
-2.100000E+01,+7.267009E-07,+9.910000E+37,+2.267809E+03,+2.150800E+04,
-2.000000E+01,+7.893277E-07,+9.910000E+37,+2.268887E+03,+2.150800E+04,
-1.900000E+01,+8.590259E-07,+9.910000E+37,+2.269948E+03,+2.150800E+04,
-1.800000E+01,+9.423607E-07,+9.910000E+37,+2.271025E+03,+2.150800E+04,
-1.700000E+01,+1.038323E-06,+9.910000E+37,+2.272099E+03,+2.150800E+04,
-1.600000E+01,+1.164082E-06,+9.910000E+37,+2.273177E+03,+2.150800E+04,
-1.500000E+01,+1.303477E-06,+9.910000E+37,+2.274236E+03,+2.150800E+04,
-1.400000E+01,+1.491360E-06,+9.910000E+37,+2.275293E+03,+2.150800E+04,
-1.300000E+01,+1.718131E-06,+9.910000E+37,+2.276353E+03,+2.150800E+04,
-1.200000E+01,+2.003489E-06,+9.910000E+37,+2.277411E+03,+2.150800E+04,
-1.100000E+01,+2.357536E-06,+9.910000E+37,+2.278467E+03,+2.150800E+04,
-1.000000E+01,+2.784814E-06,+9.910000E+37,+2.279527E+03,+2.150800E+04,
-9.000000E+00,+3.304520E-06,+9.910000E+37,+2.280606E+03,+2.150800E+04,
-8.000000E+00,+3.936854E-06,+9.910000E+37,+2.281666E+03,+2.150800E+04,
-7.000000E+00,+4.675248E-06,+9.910000E+37,+2.282725E+03,+2.150800E+04,
-6.000000E+00,+5.557586E-06,+9.910000E+37,+2.283787E+03,+2.150800E+04,
-5.000000E+00,+6.597001E-06,+9.910000E+37,+2.284849E+03,+2.150800E+04,
-4.000000E+00,+7.790449E-06,+9.910000E+37,+2.285908E+03,+2.150800E+04,
-3.000000E+00,+9.157646E-06,+9.910000E+37,+2.286970E+03,+2.150800E+04,
-2.000000E+00,+1.068645E-05,+9.91000


current through plasma (-mA) <tab> voltage across plasma (-V) <tab> time (sec)
3.371567	446.366916	0.002000
3.364687	447.092725	0.102000
3.375709	446.355386	0.202000
3.374516	446.433216	0.302000
3.362970	447.201666	0.402000
3.366689	446.715243	0.502000
3.375932	446.006711	0.603000
3.368344	446.532784	0.702000
3.362098	447.111934	0.802000
3.373046	446.516210	0.902000
3.378084	446.134108	1.002000
3.368338	447.237253	1.102000
3.370039	446.940407	1.202000
3.381065	446.322606	1.302000
3.377694	446.795592	1.402000
3.371086	447.418970	1.502000
3.380367	446.567341	1.602000
3.384529	446.428408	1.702000
3.373240	447.298813	1.802000
3.373169	447.193682	1.902000
3.384333	446.317347	2.002000
3.380274	446.655448	2.102000
3.369662	447.191359	2.202000
3.375765	446.889540	2.302000
3.381220	446.215131	2.402000
3.370147	446.842685	2.503000
3.365033	447.033327	2.602000
3.374841	446.342331	2.702000
3.374817	446.348293	2.803000
3.366362	447.143611	2.903000
3.373153	446.765248	3.002000
3.382321	446.328661	3.102000
3.374723	446.798588	3.203000
3.371467	447.396539	3.302000
3.383903	446.620005	3.402000
3.386366	446.435214	3.502000
3.375694	447.480379	3.603000
3.378361	447.364041	3.702000
3.388715	446.404706	3.802000
3.382828	446.879281	3.902000
3.376306	447.324495	4.002000
3.385485	446.795540	4.102000
3.388196	446.748007	4.202000
3.377570	447.330807	4.302000
3.379532	447.236854	4.402000
3.389444	446.611509	4.502000
3.383409	447.093391	4.602000
3.375245	447.663017	4.702000
3.384847	446.680901	4.802000
3.389490	446.276424	4.902000
3.378144	447.317161	5.002000
3.376946	447.366097	5.102000
3.387823	446.567094	5.202000
3.384671	446.803500	5.303000
3.375559	447.493052	5.402000
3.382448	447.004696	5.502000
3.387338	446.441297	5.603000
3.377070	447.248723	5.702000
3.375235	447.209412	5.802000
3.385837	446.500552	5.902000
3.382392	446.645463	6.002000
3.370618	447.295597	6.102000
3.374851	446.743702	6.202000
3.380060	446.182323	6.302000
3.369343	446.816495	6.402000
3.365572	447.230644	6.502000
3.377175	446.386916	6.602000
3.377333	446.273844	6.707000
3.368298	447.210432	6.802000
3.373808	446.832983	6.902000
3.381906	446.224738	7.002000
3.373644	446.861573	7.102000
3.370607	447.159947	7.202000
3.382442	446.446567	7.302000
3.382901	446.472778	7.402000
3.372361	447.286094	7.502000
3.376215	446.956504	7.602000
3.386556	446.393458	7.702000
3.379604	446.766835	7.802000
3.373308	447.271582	7.902000
3.383102	446.591996	8.002000
3.385623	446.278630	8.102000
3.375534	447.214150	8.202000
3.377473	447.212467	8.302000
3.386674	446.342008	8.403000
3.379968	446.951822	8.502000
3.373348	447.184776	8.602000
3.383162	446.502241	8.702000
3.386643	446.253548	8.803000
3.374396	447.241146	8.902000
3.373694	447.266889	9.002000
3.384244	446.163642	9.102000
3.379077	446.481629	9.202000
3.368206	447.168191	9.302000
3.373148	446.575610	9.402000
3.376892	446.186274	9.502000
3.366954	446.790407	9.602000
3.366034	447.080363	9.702000
3.377067	446.202276	9.802000
3.374887	446.324383	9.902000
3.366472	447.195299	10.002000
3.374922	446.500470	10.102000
3.382468	446.087411	10.202000
3.373017	446.896221	10.302000
3.369565	447.251881	10.402000
3.381173	446.511606	10.502000
3.381341	446.446373	10.602000
3.371651	447.064209	10.702000
3.375754	446.877318	10.802000
3.383141	446.299829	10.902000
3.374813	446.953193	11.002000
3.371076	447.216457	11.102000
3.381724	446.448365	11.202000
3.381463	446.416655	11.302000
3.370214	447.139515	11.402000
3.374144	446.926686	11.502000
3.383418	446.217328	11.603000
3.375250	446.856390	11.702000
3.367974	447.338369	11.802000
3.377634	446.474218	11.902000
3.380151	446.161809	12.002000
3.368653	447.025650	12.102000
3.369328	446.852504	12.202000
3.376955	446.187499	12.302000
3.369367	446.531600	12.402000
3.360929	446.999135	12.502000
3.370108	446.236203	12.602000
3.374329	446.019023	12.702000
3.364633	446.900934	12.802000
3.367398	446.946047	12.902000
3.379972	446.169743	13.002000
3.377236	446.524234	13.102000
3.369388	447.305146	13.202000
3.378092	446.745264	13.302000
3.384590	446.246875	13.402000
3.375232	447.068816	13.502000
3.374584	447.289400	13.602000
3.384939	446.545187	13.702000
3.382302	446.665962	13.802000
3.373877	447.355014	13.903000
3.382076	446.762254	14.002000
3.388462	446.269419	14.102000
3.377972	447.195323	14.202000
3.375853	447.379285	14.302000
3.387999	446.512354	14.402000
3.387039	446.479490	14.502000
3.376680	447.320718	14.602000
3.381755	447.001292	14.702000
3.389940	446.299880	14.802000
3.381953	446.908883	14.902000
3.377501	447.315820	15.002000
3.387437	446.570905	15.102000
3.388150	446.594473	15.202000
3.377856	447.233647	15.302000
3.381496	446.867219	15.402000
3.390628	446.393000	15.502000
3.382870	446.810974	15.602000
3.375450	447.455243	15.702000
3.385393	446.660606	15.802000
3.389447	446.398515	15.902000
3.377718	447.032173	16.003000
3.376353	447.210713	16.102000
3.383634	446.309369	16.202000
3.375624	446.398915	16.302000
3.366252	446.907651	16.402000
3.373742	446.502772	16.502000
3.379598	446.065888	16.603000
3.370556	446.902174	16.702000
3.370521	446.973871	16.805000
3.382636	446.125078	16.902000
3.381395	446.411560	17.002000
3.372250	447.404680	17.102000
3.379633	446.797692	17.202000
3.389353	446.134442	17.302000
3.380622	446.922440	17.402000
3.375482	447.337069	17.502000
3.386274	446.614557	17.602000
3.387662	446.529171	17.702000
3.378062	447.341105	17.802000
3.381739	447.029207	17.902000
3.390550	446.391515	18.002000
3.383214	446.989602	18.102000
3.377361	447.308493	18.202000
3.387982	446.576041	18.302000
3.390397	446.461862	18.402000
3.379025	447.431963	18.502000
3.381046	447.280420	18.602000
3.391879	446.423484	18.702000
3.386700	446.794236	18.802000
3.377837	447.360050	18.902000
3.386393	446.897785	19.002000
3.391648	446.575570	19.102000
3.381823	447.193729	19.202000
3.381637	447.227874	19.302000
3.391463	446.436434	19.402000
3.386894	446.705663	19.502000
3.378027	447.390674	19.602000
3.386726	446.787732	19.702000
3.392528	446.421635	19.802000
3.381883	447.178942	19.902000
3.379117	447.435723	20.002000
3.390696	446.529924	20.102000
3.389320	446.568454	20.202000
3.378895	447.403862	20.302000
3.384291	447.011420	20.402000
3.392133	446.442815	20.503000
3.384190	446.941980	20.602000
3.379653	447.339051	20.702000
3.389260	446.653266	20.802000
3.389052	446.590255	20.902000
3.378409	447.344397	21.002000
3.382056	446.928881	21.102000
3.390471	446.258798	21.202000
3.380364	446.790359	21.302000
3.369770	447.346829	21.402000
3.378474	446.267509	21.502000
3.382106	446.126071	21.602000
3.372150	447.017057	21.702000
3.374602	446.823448	21.802000
3.385917	446.306497	21.902000
3.381443	446.588335	22.002000
3.374981	447.238394	22.102000
3.384252	446.732480	22.202000
3.389305	446.331282	22.302000
3.379398	447.140339	22.402000
3.380566	447.171344	22.502000
3.391943	446.245802	22.602000
3.387570	446.761430	22.704000
3.378150	447.441732	22.802000
3.386468	446.870374	22.902000
3.394099	446.361989	23.002000
3.384725	446.932141	23.102000
3.381504	447.313479	23.203000
3.391997	446.634143	23.304000
3.390812	446.650176	23.402000
3.381286	447.305332	23.502000
3.386645	446.874069	23.602000
3.394264	446.388225	23.703000
3.385508	447.099122	23.803000
3.381415	447.418032	23.908000
3.392251	446.554963	24.002000
3.392275	446.484594	24.102000
3.380827	447.454809	24.202000
3.384172	447.177486	24.302000
3.394564	446.418739	24.402000
3.387438	446.852862	24.502000
3.379453	447.438416	24.602000
3.388443	446.801024	24.702000
3.391357	446.511337	24.802000
3.381309	447.305932	24.902000
3.382535	447.165924	25.002000
3.391848	446.347518	25.102000
3.385487	446.813540	25.202000
3.375957	447.405549	25.303000
3.382250	446.626099	25.402000
3.383292	446.160520	25.502000
3.370236	446.828217	25.602000
3.368613	446.924662	25.702000
3.380953	446.214507	25.802000
3.378689	446.342720	25.902000
3.369594	447.130416	26.002000
3.376738	446.741190	26.102000
3.385216	446.181356	26.202000
3.377383	446.823467	26.302000
3.374413	447.125050	26.402000
3.384955	446.334241	26.503000
3.383858	446.460213	26.602000
3.374060	447.145575	26.702000
3.379824	446.890331	26.802000
3.389252	446.204774	26.902000
3.380535	446.800584	27.002000
3.374138	447.280183	27.102000
3.382310	446.452963	27.202000
3.381815	446.223056	27.302000
3.369131	447.056838	27.402000
3.370958	446.782816	27.502000
3.381931	446.140570	27.602000
3.377428	446.590755	27.702000
3.371393	447.048561	27.802000
3.381085	446.513510	27.902000
3.385535	446.233248	28.002000
3.376122	447.058975	28.103000
3.377827	447.057705	28.202000
3.389451	446.312676	28.302000
3.385456	446.521958	28.402000
3.375936	447.292125	28.502000
3.384035	446.791171	28.602000
3.391299	446.301477	28.702000
3.381719	446.981945	28.802000
3.378925	447.242048	28.902000
3.390162	446.470545	29.002000
3.389354	446.496187	29.102000
3.379245	447.291102	29.202000
3.384182	446.930874	29.302000
3.392501	446.243545	29.402000
3.384748	446.948738	29.502000
3.379923	447.323219	29.602000
3.390537	446.495624	29.702000
3.391551	446.410844	29.802000
3.379968	447.245727	29.903000
3.382468	447.068823	30.002000
3.393520	446.289321	30.102000
3.387918	446.649514	30.202000
3.379666	447.368023	30.302000
3.387885	446.659299	30.402000
3.393006	446.363694	30.502000
3.382786	447.079342	30.602000
3.381258	447.126604	30.702000
3.391663	446.279012	30.802000
3.388094	446.640936	30.902000
3.378803	447.334331	31.002000
3.384901	446.804681	31.102000
3.391008	446.244469	31.202000
3.378302	446.836975	31.302000
3.370922	446.972983	31.402000
3.380112	446.143402	31.502000
3.379605	446.103458	31.602000
3.368988	447.049944	31.702000
3.373356	446.774216	31.802000
3.384117	446.057815	31.902000
3.378935	446.507544	32.002000
3.373785	447.011836	32.102000
3.383923	446.372672	32.202000
3.387236	446.198412	32.302000
3.377332	447.118945	32.402000
3.380116	447.002969	32.502000
3.390654	446.309785	32.602000
3.384940	446.687012	32.702000
3.377611	447.363658	32.802000
3.387479	446.724689	32.902000
3.393130	446.315419	33.002000
3.382182	447.086839	33.102000
3.380814	447.315055	33.202000
3.392485	446.395912	33.302000
3.390127	446.610576	33.402000
3.380899	447.370508	33.502000
3.387392	446.869836	33.602000
3.393913	446.338182	33.702000
3.384688	447.144665	33.802000
3.382233	447.315934	33.902000
3.393237	446.563115	34.002000
3.392246	446.494681	34.102000
3.381823	447.451332	34.202000
3.387259	446.956030	34.302000
3.396166	446.306285	34.402000
3.387704	447.068219	34.502000
3.382141	447.429596	34.602000
3.392723	446.616307	34.702000
3.395368	446.428939	34.802000
3.384875	447.153717	34.902000
3.387215	447.208347	35.002000
3.396079	446.546602	35.102000
3.390296	446.856491	35.202000
3.383865	447.387157	35.302000
3.393827	446.723088	35.402000
3.397112	446.443087	35.502000
3.385937	447.261093	35.602000
3.386562	447.346051	35.702000
3.397800	446.530022	35.802000
3.393809	446.782684	35.902000
3.384293	447.500702	36.002000
3.392251	446.847609	36.103000
3.398773	446.390374	36.202000
3.388978	447.221886	36.302000
3.386442	447.383527	36.402000
3.396989	446.553727	36.506000
3.394491	446.809222	36.602000
3.386283	447.434851	36.702000
3.392809	446.928731	36.802000
3.400104	446.434425	36.908000
3.389978	447.140723	37.002000
3.386095	447.453981	37.102000
3.397592	446.695383	37.202000
3.398470	446.514805	37.302000
3.387130	447.420766	37.402000
3.390670	447.161732	37.502000
3.399976	446.450260	37.602000
3.393206	446.953065	37.702000
3.386850	447.414432	37.802000
3.396525	446.674763	37.909000
3.398631	446.514511	38.002000
3.388408	447.347466	38.102000
3.391156	447.142015	38.202000
3.400877	446.433619	38.302000
3.393940	447.029495	38.402000
3.386230	447.544300	38.502000
3.396558	446.810067	38.602000
3.401351	446.468715	38.702000
3.390342	447.240024	38.802000
3.389225	447.388206	38.903000
3.400054	446.493999	39.002000
3.396419	446.728083	39.102000
3.387873	447.463431	39.202000
3.395273	446.894866	39.303000
3.400976	446.468087	39.402000
3.390919	447.243606	39.502000
3.389349	447.276344	39.602000
3.400168	446.508068	39.702000
3.397403	446.853998	39.803000
3.386973	447.512725	39.902000
3.394210	447.067033	40.002000
3.402487	446.441647	40.102000
3.393065	447.076601	40.202000
3.387916	447.565880	40.302000
3.398751	446.722834	40.402000
3.399718	446.666518	40.502000
3.389866	447.334212	40.602000
3.393786	447.200447	40.702000
3.401817	446.590690	40.802000
3.393692	447.048576	40.902000
3.388472	447.455129	41.002000
3.398907	446.689825	41.102000
3.400506	446.622568	41.202000
3.389045	447.477396	41.302000
3.391844	447.234898	41.402000
3.402620	446.483334	41.502000
3.396128	447.009265	41.602000
3.387687	447.541221	41.702000
3.396732	446.988687	41.803000
3.401920	446.575415	41.902000
3.391914	447.333587	42.003000
3.391724	447.285169	42.102000
3.401458	446.699453	42.202000
3.397104	446.909507	42.302000
3.388632	447.568135	42.402000
3.397439	446.838237	42.502000
3.403303	446.423357	42.602000
3.392377	447.285498	42.703000
3.390041	447.512312	42.803000
3.401620	446.620770	42.902000
3.399989	446.681255	43.002000
3.389064	447.473360	43.102000
3.394692	447.050098	43.202000
3.402986	446.433038	43.302000
3.394533	447.034845	43.402000
3.389633	447.467727	43.502000
3.399406	446.758902	43.602000
3.399596	446.618923	43.702000
3.389464	447.361123	43.802000
3.394398	447.068897	43.902000
3.403772	446.381475	44.002000
3.394712	447.096604	44.102000
3.388032	447.684108	44.202000
3.399220	446.736668	44.302000
3.401958	446.474669	44.402000
3.390808	447.317432	44.502000
3.392153	447.207445	44.602000
3.402247	446.568178	44.702000
3.396968	446.887399	44.802000
3.388992	447.437394	44.902000
3.397002	446.820791	45.002000
3.401648	446.493002	45.102000
3.391586	447.249717	45.202000
3.391533	447.182512	45.302000
3.402322	446.457991	45.402000
3.398727	446.701014	45.502000
3.388278	447.523050	45.602000
3.395780	447.039750	45.703000
3.404253	446.374713	45.802000
3.394910	446.985214	45.902000
3.389913	447.429155	46.002000
3.400244	446.701933	46.102000
3.400623	446.630946	46.202000
3.390644	447.352519	46.302000
3.394573	447.063559	46.402000
3.403075	446.518318	46.502000
3.395494	447.055452	46.602000
3.390147	447.376208	46.702000
3.400272	446.579770	46.802000
3.401706	446.623452	46.902000
3.390289	447.427383	47.002000
3.392521	447.218434	47.102000
3.403870	446.316910	47.202000
3.398220	446.801860	47.302000
3.388893	447.538128	47.402000
3.396886	446.952181	47.502000
3.402795	446.483471	47.602000
3.393483	447.153369	47.702000
3.392100	447.277513	47.802000
3.401985	446.612056	47.902000
3.398950	446.771874	48.002000
3.389495	447.486681	48.103000
3.396316	446.983455	48.202000
3.403025	446.470549	48.302000
3.393080	447.196350	48.402000
3.389105	447.524035	48.502000
3.400755	446.609618	48.602000
3.400370	446.524979	48.702000
3.388670	447.349751	48.802000
3.392001	447.235685	48.902000
3.401722	446.465577	49.002000
3.394905	446.969538	49.102000
3.388688	447.336645	49.202000
3.397737	446.702671	49.302000
3.399261	446.560996	49.402000
3.388491	447.382637	49.502000
3.391409	447.064072	49.602000
3.401707	446.355310	49.702000
3.394976	446.822680	49.802000
3.386628	447.496194	49.902000
3.395908	446.733067	50.002000
3.400553	446.294940	50.102000
3.389502	447.187447	50.202000
3.388946	447.304043	50.302000
3.400181	446.453180	50.402000
3.396999	446.641161	50.502000
3.388272	447.377583	50.602000
3.394908	446.851294	50.702000
3.400336	446.402599	50.802000
3.391084	447.200824	50.903000
3.389641	447.289332	51.002000
3.400984	446.381674	51.102000
3.398464	446.656799	51.202000
3.387624	447.447404	51.302000
3.393715	446.983188	51.402000
3.402373	446.343242	51.502000
3.393757	446.997104	51.606000
3.389031	447.283393	51.703000
3.398972	446.624029	51.803000
3.400146	446.543516	51.902000
3.389361	447.267774	52.003000
3.392881	446.970715	52.102000
3.401790	446.340526	52.202000
3.394421	446.866267	52.302000
3.388427	447.390996	52.402000
3.398887	446.537136	52.502000
3.400742	446.378275	52.602000
3.388880	447.272279	52.702000
3.390508	447.189507	52.802000
3.401898	446.320977	52.902000
3.396753	446.630083	53.002000
3.387984	447.429967	53.102000
3.395932	446.780775	53.202000
3.401019	446.386257	53.302000
3.390980	447.053608	53.402000
3.390212	447.152977	53.502000
3.400528	446.375736	53.602000
3.396317	446.717674	53.702000
3.387380	447.287479	53.805000
3.395110	446.749340	53.902000
3.400993	446.241263	54.002000
3.390090	446.942454	54.103000
3.386850	447.288753	54.202000
3.398624	446.332222	54.302000
3.396988	446.403540	54.402000
3.385263	447.199655	54.502000
3.388502	446.895333	54.602000
3.391770	446.103013	54.702000
3.375571	446.396995	54.802000
3.366349	446.538456	54.902000
3.373993	445.752106	55.002000
3.371014	445.785406	55.102000
3.358481	446.422052	55.206000
3.361558	446.126510	55.302000
3.369785	445.303462	55.402000
3.361085	445.908076	55.503000
3.354274	446.416337	55.602000
3.365249	445.620362	55.702000
3.368407	445.444171	55.802000
3.357669	446.147055	55.902000
3.359562	446.254571	56.002000
3.371363	445.547482	56.102000
3.368437	446.026832	56.202000
3.362702	446.554203	56.302000
3.372183	445.901733	56.402000
3.376483	445.712763	56.502000
3.366269	446.547049	56.602000
3.367124	446.569185	56.702000
3.378731	445.723154	56.802000
3.375437	445.885167	56.902000
3.365497	446.803804	57.002000
3.372619	446.272799	57.102000
3.380089	445.682165	57.202000
3.370673	446.319273	57.302000
3.366404	446.664811	57.402000
3.376684	445.889084	57.502000
3.376601	445.834757	57.602000
3.365286	446.521171	57.702000
3.367148	446.222197	57.802000
3.375166	445.541811	57.902000
3.368306	446.258083	58.002000
3.363960	446.648233	58.102000
3.375806	445.894337	58.202000
3.379502	445.702599	58.302000
3.368623	446.580413	58.402000
3.369971	446.615284	58.502000
3.381559	445.817184	58.602000
3.377895	446.094009	58.702000
3.369543	446.811353	58.802000
3.378190	446.233585	58.902000
3.384611	445.759803	59.002000
3.375012	446.556100	59.102000
3.374206	446.708502	59.202000
3.384853	445.904582	59.302000
3.381944	446.185874	59.402000
3.373514	446.895408	59.502000
3.381196	446.297083	59.602000
3.388927	445.800636	59.702000
3.378781	446.557438	59.802000
3.374634	446.971639	59.902000
3.386419	446.152264	60.002000
3.387205	446.003146	60.102000
3.376869	446.743354	60.202000
3.380854	446.522551	60.302000
3.389906	445.894128	60.402000
3.382861	446.480428	60.502000
3.377440	446.938403	60.602000
3.387507	446.158792	60.702000
3.389589	446.070709	60.802000
3.379099	446.883086	60.903000
3.382001	446.675964	61.002000
3.392862	445.965927	61.102000
3.386179	446.420119	61.202000
3.377732	447.053658	61.302000
3.387749	446.373286	61.402000
3.393079	445.907897	61.503000
3.382919	446.710714	61.602000
3.381850	446.788039	61.702000
3.392103	446.089889	61.802000
3.388491	446.365277	61.902000
3.380095	446.994838	62.002000
3.387987	446.495727	62.102000
3.393831	445.978680	62.202000
3.383447	446.702861	62.302000
3.381473	446.914430	62.402000
3.392831	446.135622	62.502000
3.390070	446.333517	62.602000
3.379612	447.040404	62.702000
3.385862	446.603120	62.802000
3.394293	445.962471	62.902000
3.384777	446.645672	63.002000
3.378968	446.963924	63.102000
3.385716	446.136349	63.202000
3.381658	445.918689	63.302000
3.369350	446.670031	63.402000
3.373429	446.272861	63.502000
3.381539	445.654028	63.602000
3.373796	446.173804	63.702000
3.368012	446.744921	63.802000
3.379267	445.991392	63.902000
3.381363	445.778750	64.002000
3.369641	446.536888	64.102000
3.370347	446.457942	64.202000
3.381512	445.675298	64.302000
3.377366	446.128017	64.402000
3.370698	446.779405	64.502000
3.380791	446.219913	64.602000
3.386500	445.906333	64.702000
3.377589	446.739414	64.802000
3.378754	446.707238	64.902000
3.389482	445.906643	65.002000
3.384753	446.282004	65.102000
3.376257	446.976157	65.202000
3.385269	446.357565	65.302000
3.391686	445.873541	65.402000
3.380696	446.712865	65.502000
3.378117	446.822872	65.603000
3.388644	446.120456	65.702000
3.385426	446.128176	65.802000
3.373023	446.830083	65.902000
3.377967	446.315732	66.002000
