Data from Argon1000V710mTAnode_USB2G486391__1__17-14-10-869.txt Node

Date: Thu Oct 28 17:14:10 EDT 2021
User: phys191
Spectrometer: USB2G48639
Scans to average: 1
Trigger mode: 4
Integration Time (sec): 1.000000E0
Electric dark correction enabled: true
Boxcar width: 0
XAxis mode: Wavelengths
Number of Pixels in Spectrum: 651
>>>>>Begin Spectral Data<<<<<
350	5.46
351	-2.97
352	4.1
353	-6.26
354	-0.33
355	7.02
356	13.16
357	36.98
358	6.67
359	2.92
360	-5.98
361	-7.06
362	-4.4
363	9.01
364	-0.77
365	-0.28
366	-3.65
367	-4.44
368	28.44
369	17.74
370	7.44
371	41.43
372	11.54
373	15.63
374	-0.04
375	-6.59
376	3.75
377	5.93
378	3.91
379	-3.42
380	0.87
381	1.28
382	9.04
383	-8.29
384	-7.41
385	3.91
386	6.79
387	-3.38
388	-7.87
389	0.27
390	-3.41
391	-0.15
392	1.69
393	1.93
394	2.18
395	1
396	4.8
397	2.33
398	23.72
399	2.83
400	-0.68
401	15.4
402	1.23
403	6.29
404	226.94
405	28.39
406	7.65
407	7.84
408	5.75
409	9.11
410	-1.15
411	2.55
412	5.83
413	146.89
414	15.55
415	0.79
416	24.91
417	61.71
418	6.31
419	14.78
420	63.02
421	135.01
422	15.45
423	-2.26
424	3.76
425	8.55
426	19.93
427	110.43
428	79.71
429	40
430	8.35
431	26.2
432	-2.96
433	-0.93
434	50.29
435	51.24
436	30.27
437	4.98
438	19.85
439	7.66
440	4.2
441	24.11
442	7.9
443	18.8
444	13.95
445	2.31
446	-5.06
447	-1.04
448	4.31
449	16.19
450	-0.86
451	12.6
452	48.09
453	8.69
454	20.86
455	39.79
456	24.68
457	25.2
458	1.29
459	24.48
460	37.3
461	18.77
462	28.59
463	10.58
464	6.2
465	44.4
466	31.18
467	15.08
468	8.08
469	-3.69
470	-6.88
471	0.85
472	0.43
473	7.16
474	26.37
475	3.93
476	4.71
477	38.6
478	23.8
479	-2.23
480	1.47
481	13.14
482	10.25
483	-0.02
484	3.07
485	4.21
486	10.04
487	45.71
488	25.15
489	55.28
490	22.18
491	8.84
492	21.84
493	324.76
494	43.31
495	16.89
496	11.22
497	66.89
498	5.67
499	4.47
500	-2.38
501	-1.18
502	12.28
503	6.22
504	0.33
505	-1.22
506	-5.99
507	8.76
508	9.36
509	-1.09
510	-2.18
511	-4.07
512	-5.19
513	-5.69
514	-2.42
515	-5.15
516	4.98
517	6.84
518	3.34
519	8.99
520	21.27
521	-6.43
522	-0.15
523	5.41
524	-1.04
525	8.3
526	7.28
527	5.06
528	-10.61
529	-12.11
530	-8.82
531	-1.32
532	2.45
533	-5.13
534	-10.58
535	-8.34
536	4.98
537	3.53
538	6.71
539	1.81
540	0.16
541	-5.37
542	1.62
543	1.78
544	7.9
545	-0.23
546	6.02
547	-5.28
548	-2.52
549	-5.94
550	12.87
551	15.24
552	8.98
553	-4.32
554	-5.93
555	-1.54
556	8.35
557	18.45
558	15.21
559	3.28
560	5.58
561	22.02
562	17.97
563	8.45
564	7.37
565	3.89
566	8.88
567	14.91
568	2.13
569	0.86
570	-2.2
571	-5.48
572	-8.5
573	0.69
574	-5.29
575	69.25
576	24.4
577	1.82
578	-1.07
579	-2.6
580	2.04
581	2.42
582	34.85
583	3.49
584	-4.16
585	-6.36
586	-2.34
587	0.94
588	61.55
589	16.54
590	24.14
591	2.86
592	52.71
593	16.95
594	9.74
595	3.13
596	3.28
597	-2.54
598	1.56
599	-16.45
600	-0.15
601	-3.08
602	8.1
603	5.56
604	42.98
605	32
606	18.1
607	13.71
608	0.7
609	6.83
610	8.13
611	12.69
612	17.4
613	7.84
614	25.51
615	1.09
616	3.16
617	11.2
618	20.34
619	12.8
620	-3.57
621	-8.68
622	6.54
623	5.07
624	3.6
625	-5.33
626	-1.3
627	-8.17
628	-3.84
629	-9.62
630	30.35
631	5.33
632	9.11
633	-0.76
634	-1.83
635	-13.36
636	-18.84
637	-11.4
638	-1.9
639	35.63
640	-0.95
641	2.13
642	72.12
643	15.41
644	10.47
645	-0.86
646	-0.72
647	7.18
648	0.78
649	2.28
650	2.95
651	2.92
652	8.84
653	28.78
654	11.13
655	-2
656	4.7
657	132.96
658	68.24
659	12.11
660	3.26
661	16.87
662	5.8
663	12.23
664	-2.48
665	-2.08
666	4.98
667	0.81
668	19.8
669	26.16
670	7.63
671	45.68
672	-3.3
673	-1.78
674	1.51
675	6.9
676	55.52
677	35.37
678	8.54
679	-1.11
680	-5.8
681	-5.62
682	9.15
683	-6.7
684	64.49
685	1.18
686	4.75
687	9.63
688	67.43
689	64.27
690	25.99
691	1.86
692	-1.73
693	-7.5
694	17.6
695	29.6
696	40.96
697	400.31
698	362.09
699	102.12
700	16.81
701	-7.06
702	0.87
703	-2.26
704	36.68
705	13.47
706	4.1
707	253.42
708	344.44
709	110.67
710	17.19
711	5.39
712	3.33
713	-0.14
714	0.75
715	23.48
716	30.52
717	5.75
718	1.73
719	-7.94
720	-0.34
721	24.32
722	17.66
723	3.82
724	2.67
725	46.65
726	-2.91
727	8.29
728	87.26
729	56.55
730	12.8
731	3.62
732	16.91
733	8.81
734	7.99
735	4.24
736	30.27
737	22.2
738	76.68
739	591.57
740	376.94
741	119.51
742	29.73
743	80.69
744	30.77
745	34.73
746	6.62
747	12.65
748	25.46
749	28.88
750	74.81
751	2836.19
752	2981.82
753	1442.06
754	366.68
755	47.11
756	19.78
757	9.24
758	6.3
759	8.96
760	22.23
761	11.18
762	13.24
763	93.04
764	1918.29
765	1414.85
766	503.04
767	63.03
768	18.57
769	10.72
770	11.79
771	7.86
772	24.27
773	663.08
774	380.24
775	139.28
776	18.36
777	1.76
778	20.12
779	-8.63
780	6.34
781	-4.09
782	-10.23
783	-5.02
784	-7.79
785	0
786	-1.27
787	3.5
788	24.39
789	-1.15
790	16.51
791	6.48
792	16.96
793	27.2
794	0.45
795	288.7
796	457.72
797	240.98
798	39
799	15.89
800	10.25
801	185.14
802	683.66
803	393.18
804	144.75
805	24.97
806	12.83
807	6.32
808	10.8
809	7.18
810	33.45
811	643.63
812	1752.66
813	1107.25
814	435.1
815	60.39
816	19.05
817	9.84
818	-3.33
819	2.27
820	-7.75
821	6.39
822	6.86
823	1.25
824	11.78
825	-2.62
826	3.07
827	253.9
828	154.12
829	61.81
830	3.78
831	-2.18
832	-8.12
833	-3.23
834	2.81
835	-2.82
836	7.08
837	6.35
838	3.19
839	30.47
840	14.69
841	346.86
842	458.72
843	892.41
844	464.23
845	190.25
846	60.72
847	-1.58
848	13.86
849	-2.37
850	-2.23
851	-0.74
852	42.66
853	214.23
854	111.16
855	30.59
856	1.74
857	1.78
858	-10.56
859	0.58
860	-12.84
861	7.63
862	3.56
863	-4
864	-1.04
865	-8.82
866	1.32
867	28.6
868	31.96
869	10.62
870	-3.68
871	-4.76
872	-4.47
873	-2.76
874	-14.06
875	-4.26
876	-4.42
877	-2.27
878	0.1
879	-5.47
880	3.87
881	-10.12
882	-8.51
883	-2.56
884	-9.99
885	-10.42
886	-1.36
887	0.38
888	-6.1
889	3.28
890	41.37
891	-4.85
892	-4.84
893	-2.48
894	-6.61
895	-11.58
896	1.73
897	1.78
898	-9.51
899	-8.42
900	29.5
901	-8.21
902	-4.99
903	2.63
904	1.16
905	5.99
906	-2.6
907	1.84
908	1.44
909	3.68
910	-8.71
911	-1.45
912	67.84
913	425.15
914	129.38
915	73.76
916	22.77
917	-12.99
918	-7.65
919	6.99
920	1.06
921	-5.15
922	3.65
923	62.23
924	14.47
925	9.79
926	0.91
927	-7.97
928	-7.25
929	-10.08
930	3.26
931	59.53
932	-7.16
933	-5.22
934	-6.26
935	-3.02
936	17.17
937	-3.06
938	-12.74
939	9.51
940	-8.96
941	-7.53
942	-4.33
943	-9.08
944	0.81
945	-10.25
946	1.76
947	-7.42
948	-10.37
949	3.26
950	-13.25
951	-2.93
952	2.43
953	-8.28
954	-7.43
955	-5.97
956	-3.49
957	-1.06
958	49.22
959	-6.81
960	-0.88
961	-4.15
962	-5.51
963	-5.16
964	2.22
965	-8.93
966	18.5
967	9.92
968	7.46
969	6.47
970	-9.58
971	-10.64
972	-11.89
973	26.03
974	-14.08
975	-9.1
976	10.8
977	-1.56
978	-3.48
979	4.72
980	1.8
981	-1.34
982	2.14
983	1.84
984	0.81
985	4.33
986	-10.94
987	-10.99
988	-3.06
989	-8.19
990	-13.83
991	-6.93
992	-4.24
993	6.3
994	-4.52
995	3.25
996	-2.25
997	2.91
998	-9.84
999	1.89
1000	7.2
