Data from Argon1000V872mT_1000ms_USB2G486391__5__00126.txt Node

Date: Thu Oct 21 17:34:01 EDT 2021
User: phys191
Spectrometer: USB2G48639
Scans to average: 1
Trigger mode: 4
Integration Time (sec): 1.000000E0
Electric dark correction enabled: true
Boxcar width: 0
XAxis mode: Wavelengths
Number of Pixels in Spectrum: 651
>>>>>Begin Spectral Data<<<<<
350	11.01
351	-2.22
352	-3.12
353	0.53
354	-6.2
355	-0.36
356	11.34
357	37.16
358	-3.44
359	-7.56
360	-5.01
361	-6.79
362	-8.43
363	5.66
364	-11.41
365	-2.75
366	-6.8
367	-7.05
368	26.22
369	32.12
370	0.69
371	37.73
372	5.49
373	13.8
374	-1.17
375	-6.1
376	0.66
377	3.52
378	-5.55
379	-1.94
380	-7.21
381	10.16
382	-2.71
383	-3.98
384	-2.49
385	-3.11
386	4.52
387	-0.12
388	-8.58
389	-3.84
390	-8.21
391	-8.33
392	-6.27
393	0.35
394	-4.81
395	0.19
396	-3.55
397	-5.28
398	23.09
399	-6.3
400	-1.45
401	20.15
402	-11.73
403	11.33
404	231.9
405	9.63
406	-9.14
407	-3.25
408	-1.95
409	5.25
410	-6.46
411	-3.51
412	3.58
413	21.46
414	4.85
415	-0.12
416	-4.55
417	18.67
418	6.93
419	-3.46
420	11.89
421	37.62
422	13.3
423	0.99
424	0.57
425	4.47
426	6.74
427	48.1
428	20.2
429	8.17
430	1.38
431	5.79
432	-7.1
433	-4.07
434	8.53
435	13.68
436	11.18
437	-0.95
438	8.41
439	6.42
440	-3.67
441	17.32
442	5.68
443	8.47
444	-1.43
445	1.59
446	-0.58
447	-6.88
448	-1.2
449	6.21
450	-12.43
451	5.51
452	8.56
453	2.91
454	20.31
455	21.79
456	11.63
457	27.05
458	-0.92
459	7.39
460	13.6
461	5.91
462	17.97
463	-0.62
464	7.69
465	48.11
466	21.26
467	9.57
468	7.17
469	-7.71
470	-5.43
471	-1.8
472	-2.33
473	-5.41
474	8.3
475	-6.39
476	0.45
477	16.9
478	11.04
479	-1.62
480	-3.25
481	3.95
482	3.63
483	5.19
484	6.85
485	0.08
486	1.22
487	13.22
488	8.52
489	19.69
490	12.3
491	0.99
492	13.03
493	140.48
494	44.93
495	20.4
496	4.17
497	62.27
498	1.15
499	9.73
500	-10.32
501	-4.62
502	10.98
503	-0.08
504	3.38
505	10.31
506	-1.38
507	1.4
508	13.81
509	-3.74
510	-5.62
511	-2.18
512	-1.14
513	-5.49
514	-3.12
515	-1.86
516	7.31
517	2.34
518	-1.71
519	-5.01
520	23.31
521	1.32
522	-2.78
523	1.08
524	-5.67
525	1.4
526	10
527	10.9
528	-4.81
529	0.82
530	-6.62
531	-5.88
532	10.45
533	3.47
534	-3.04
535	-9.22
536	13.67
537	1.71
538	2.2
539	5.34
540	-2.69
541	-11.85
542	-4.55
543	-5.39
544	1.63
545	1.13
546	1.71
547	-5.97
548	3.43
549	-7.93
550	1.17
551	11.17
552	1.79
553	-5.51
554	-1.97
555	-1.01
556	-2.63
557	4.57
558	6.48
559	-8.54
560	14.84
561	14.09
562	8.86
563	-1.48
564	-2.64
565	4.07
566	7.15
567	13.98
568	3.43
569	-2.01
570	-1.68
571	-0.59
572	-7.12
573	0.09
574	8.47
575	64.14
576	28.97
577	0.97
578	-7.35
579	-6.66
580	-4.84
581	-0.94
582	38.17
583	5.86
584	-7.33
585	-6.29
586	-7.23
587	-4.25
588	58.97
589	8.74
590	16.02
591	3.7
592	40.32
593	4.23
594	7.11
595	-7.07
596	2.43
597	-0.02
598	-1.3
599	1.03
600	-8
601	0.61
602	20.88
603	-0.59
604	7.61
605	13.73
606	7.82
607	16.08
608	4.75
609	-2.41
610	1.26
611	5.71
612	3.97
613	12.03
614	22.34
615	-3.25
616	-0.28
617	8.39
618	9.68
619	3.02
620	-0.42
621	-6.18
622	7.9
623	-1.11
624	-1.75
625	1.14
626	-3.41
627	-0.7
628	3.38
629	-11.84
630	30.66
631	1.52
632	7.01
633	-1.73
634	-1.27
635	-5.88
636	-10.95
637	-2.45
638	5.38
639	25.02
640	-1.49
641	2.06
642	66.22
643	10.33
644	5.28
645	3.57
646	8.61
647	12.46
648	4.13
649	-6.52
650	-0.11
651	3.6
652	16.71
653	39.13
654	4.05
655	-0.94
656	-0.41
657	45.75
658	27.44
659	11.35
660	3.29
661	21.15
662	-1.94
663	17.82
664	-4.91
665	-8.78
666	-0.79
667	-0.25
668	7.71
669	10.07
670	5.01
671	49.07
672	0.31
673	3.58
674	2.3
675	-0.44
676	18.12
677	26.59
678	4.71
679	-9.1
680	0.26
681	-6.6
682	-4.76
683	-2.16
684	67.98
685	-1.31
686	12.19
687	6.03
688	33.78
689	50.5
690	21.25
691	2.53
692	-1.71
693	-2.19
694	3.7
695	20.59
696	45
697	198.81
698	221.9
699	82.35
700	19.26
701	4.68
702	0.63
703	-4.44
704	2.98
705	3.54
706	3.18
707	121.8
708	159.53
709	70.46
710	6.15
711	-0.77
712	3.85
713	-1.76
714	10.13
715	5.01
716	6.66
717	2.99
718	-3.03
719	-4.67
720	-4.06
721	17.54
722	2.35
723	2.86
724	0.72
725	52.76
726	6.46
727	11.66
728	42.72
729	39.55
730	11.07
731	-1.35
732	1.94
733	3.78
734	9.19
735	6.86
736	13.61
737	17.36
738	30.64
739	261.25
740	202.43
741	74.13
742	20.98
743	74.04
744	8.14
745	18.35
746	6.25
747	6.92
748	8.57
749	26.74
750	53.16
751	1155.77
752	1424.77
753	767.72
754	207.16
755	25.18
756	8.66
757	3.24
758	13.86
759	4.54
760	18.68
761	1.77
762	5.13
763	79.49
764	821.37
765	721.12
766	302.45
767	36.99
768	7.96
769	2.2
770	8.18
771	6.95
772	14.22
773	320.08
774	240.64
775	101.71
776	2.76
777	2.62
778	21.83
779	-2.2
780	2.66
781	-9.49
782	-5.57
783	-3.58
784	-4.66
785	-9.66
786	5.17
787	3.04
788	27.9
789	-2.82
790	3.62
791	-5.72
792	15.09
793	27.45
794	-9.33
795	145.31
796	220.33
797	169.31
798	17.67
799	14.3
800	-1.41
801	91.03
802	328.4
803	213.03
804	93.3
805	20.76
806	4.57
807	4.42
808	13.86
809	7.8
810	25.39
811	295.23
812	757.39
813	548.8
814	247.7
815	30.56
816	14.22
817	9.74
818	-7.97
819	6.3
820	-2.35
821	9.42
822	7.23
823	-2.81
824	14.2
825	-5.6
826	10.81
827	126.78
828	103.93
829	41.16
830	3.02
831	-7.86
832	-7.58
833	-5.54
834	-2.8
835	0.29
836	4.04
837	8.5
838	-2.76
839	31.68
840	-0.39
841	167.12
842	223.65
843	402.24
844	249.76
845	125.47
846	47.62
847	2.52
848	9.77
849	2.35
850	-9.03
851	-3.1
852	32.96
853	103.17
854	83.67
855	17.67
856	-6
857	-0
858	-7.3
859	-4.9
860	-8
861	0.24
862	1.65
863	-4.46
864	0.81
865	-7.03
866	1.43
867	7.94
868	20.87
869	6.57
870	0.71
871	0.05
872	2.96
873	-4.34
874	-2.67
875	6.54
876	-3.57
877	-1.71
878	6.31
879	0.87
880	8.9
881	-10.13
882	-1.72
883	-1.86
884	-4.39
885	-6.71
886	-1.39
887	0.15
888	0.56
889	1.41
890	37.48
891	-5.61
892	3.07
893	-9.95
894	-5.38
895	-7.61
896	-5.7
897	-1.91
898	-8.04
899	-7.65
900	35.95
901	-3.67
902	6.37
903	2.54
904	-1.14
905	3.76
906	-3.69
907	4.79
908	-0.37
909	2.13
910	-5.2
911	-0.27
912	51.23
913	179.61
914	66.51
915	43.46
916	18.02
917	-2.82
918	1.1
919	4.79
920	-5.39
921	0.17
922	3.6
923	21.8
924	-2.46
925	6.93
926	-1.46
927	-10.08
928	-4.86
929	0.05
930	3.05
931	36.02
932	-9.61
933	-9.91
934	-10.86
935	-7.21
936	10.8
937	-5.12
938	-16.05
939	7.93
940	4.91
941	-4.63
942	1.93
943	-7.44
944	-3.93
945	-1.09
946	0.62
947	-2.46
948	-5.42
949	1.17
950	1.15
951	1.72
952	7.24
953	-7.31
954	-6.76
955	-8.16
956	-9.48
957	-6.71
958	42.84
959	-7.32
960	-3.61
961	-14.72
962	-3.53
963	7.83
964	-2.19
965	-4.82
966	8.81
967	1.84
968	3.02
969	-3.31
970	-4.28
971	-2.65
972	-6.05
973	14.42
974	-9.64
975	-12.36
976	15.08
977	-1.07
978	-3.17
979	-2.55
980	-3.12
981	-12
982	-1.07
983	0.83
984	6.05
985	3.7
986	-1.23
987	-7.45
988	-3.71
989	-12.56
990	-3.72
991	-5.26
992	-0.39
993	4
994	-3.91
995	4.36
996	-1.49
997	5.88
998	1.81
999	1.83
1000	5.68
