Data from Argon1000V223mT_1000ms_USB2G486391__1__00101.txt Node

Date: Thu Oct 21 16:46:00 EDT 2021
User: phys191
Spectrometer: USB2G48639
Scans to average: 1
Trigger mode: 4
Integration Time (sec): 1.000000E0
Electric dark correction enabled: true
Boxcar width: 0
XAxis mode: Wavelengths
Number of Pixels in Spectrum: 651
>>>>>Begin Spectral Data<<<<<
350	-1.21
351	-4.83
352	-6.51
353	-2.05
354	14.61
355	14.53
356	26.39
357	65.23
358	60.98
359	17.26
360	-8.21
361	-5.6
362	-12.68
363	-4.96
364	-14.61
365	-15.2
366	-15.14
367	-8.53
368	12.09
369	22.08
370	-3.69
371	44.21
372	13.17
373	17.84
374	0.98
375	7.36
376	29.36
377	4.4
378	0.57
379	9.45
380	42.88
381	89.41
382	14.92
383	-10.29
384	-5.73
385	1.21
386	5.9
387	-9.55
388	-10.35
389	-5.68
390	-2.67
391	11.34
392	23.26
393	1.91
394	4.41
395	13.14
396	-0.13
397	-5.68
398	31.07
399	9.11
400	38.87
401	41.72
402	9.34
403	15.52
404	251.01
405	49.48
406	75.8
407	48.39
408	9.58
409	7.84
410	-4.8
411	2.63
412	4.07
413	14.53
414	13.95
415	1.44
416	11.37
417	59.5
418	-6.24
419	15.57
420	79.22
421	144.35
422	17.7
423	-2.92
424	9.36
425	22.17
426	36.54
427	161.57
428	144.55
429	81.91
430	9.97
431	35.64
432	4.16
433	4.56
434	86.81
435	109.59
436	57.42
437	4.44
438	35.45
439	28.97
440	-0.32
441	26.92
442	5.05
443	25.02
444	33.12
445	0.15
446	-4.68
447	-6.35
448	10.75
449	25.86
450	3.26
451	17.45
452	48.44
453	14.1
454	18.52
455	85.95
456	40.95
457	36.35
458	22.69
459	55.06
460	67.42
461	45.68
462	80.69
463	11.1
464	7.11
465	43.64
466	53.97
467	54.97
468	16.68
469	-8.39
470	-8.28
471	0.75
472	8.54
473	19.74
474	54.06
475	15.52
476	4.07
477	84.07
478	58.83
479	-1.29
480	1.63
481	27.63
482	22.63
483	3.22
484	9.1
485	1.11
486	28.57
487	147.57
488	69.09
489	117
490	50.38
491	13.86
492	25.52
493	136.47
494	49.09
495	16.48
496	25.01
497	84.37
498	14.65
499	-5.59
500	-9.98
501	-1.65
502	22.03
503	2.05
504	-1.21
505	2.05
506	7.39
507	7.47
508	6.04
509	-5.97
510	-2.2
511	-12.44
512	-8.71
513	-8.99
514	-0.74
515	10.75
516	13
517	28.98
518	2.51
519	18.14
520	37.39
521	-1.11
522	3.18
523	15.37
524	-0.77
525	-0.1
526	7.2
527	3.99
528	-7.13
529	-10.98
530	-9.53
531	-0.96
532	3.8
533	-4.53
534	-9.33
535	-0.99
536	15.31
537	18.38
538	14.45
539	14.83
540	9.43
541	5.81
542	13.19
543	10.58
544	10.63
545	14.16
546	19.06
547	8.57
548	13.94
549	5
550	23.93
551	37.5
552	19.96
553	-0.44
554	-4.92
555	11.2
556	12.12
557	29.68
558	28.05
559	6.89
560	6.89
561	32.4
562	38.05
563	2.01
564	1.51
565	3.1
566	7.97
567	20.24
568	1.88
569	2.18
570	1.42
571	-0.55
572	1.28
573	9.75
574	34.27
575	101.63
576	57.97
577	27.21
578	35.7
579	52.11
580	61.45
581	50.88
582	73.1
583	52.12
584	54.25
585	54.73
586	53.09
587	44.51
588	99.7
589	70.01
590	93.72
591	69.69
592	105.97
593	64.58
594	70.07
595	65.02
596	63.59
597	46.01
598	43.55
599	57.04
600	66.81
601	74.07
602	86.94
603	52.29
604	108.15
605	124.63
606	95.01
607	95.18
608	59.7
609	28.73
610	24.44
611	47.32
612	72.37
613	58.71
614	54.05
615	18.15
616	23.25
617	34.08
618	52.56
619	35.39
620	14.42
621	3.76
622	35.58
623	24.64
624	13.92
625	12.54
626	12.51
627	13.71
628	11.09
629	18.78
630	77.45
631	48.82
632	56.43
633	39.99
634	16.32
635	6.65
636	20.69
637	52.22
638	66.21
639	109.79
640	67.73
641	37.12
642	112.94
643	68.45
644	91.39
645	92.09
646	101.78
647	110.5
648	84.18
649	50.65
650	52.08
651	100.69
652	142.3
653	175.27
654	154.6
655	147.05
656	122.12
657	425.35
658	268.47
659	181.14
660	198.22
661	225.8
662	222.93
663	227.86
664	109.7
665	76.9
666	80.48
667	131.84
668	192.14
669	213.73
670	220.91
671	256.91
672	121.89
673	66.42
674	45.65
675	78.46
676	187.79
677	181.69
678	160.22
679	160.43
680	109.79
681	47.84
682	21.82
683	16.42
684	110.9
685	32.1
686	49.32
687	64.98
688	128.88
689	100.27
690	38.35
691	3.97
692	-8.15
693	-12.17
694	18.81
695	23.78
696	43.82
697	290.42
698	258.57
699	59.86
700	15.23
701	-4.88
702	-4.27
703	-3.67
704	33.85
705	14.95
706	-3.29
707	199.42
708	240.64
709	89.1
710	13.23
711	6.11
712	4.23
713	10.29
714	12.07
715	22.82
716	23.08
717	18.96
718	5.31
719	-2.53
720	-5.33
721	33.67
722	25.83
723	33.07
724	33.3
725	80.88
726	60.48
727	62.07
728	108.29
729	68.03
730	31.06
731	18.43
732	34.4
733	40.19
734	54.99
735	90.67
736	116.02
737	131.31
738	183.69
739	518.89
740	340.18
741	124.84
742	47.03
743	93.99
744	73.19
745	74.81
746	108.85
747	149.8
748	155.34
749	172.29
750	228.36
751	2065.75
752	2191.35
753	1074.2
754	287.21
755	53.74
756	46.76
757	62.72
758	105.21
759	133.33
760	152.02
761	136.51
762	143.76
763	227.08
764	1316.25
765	936.6
766	366.42
767	64.52
768	38.16
769	51.62
770	90.36
771	138.93
772	162.68
773	606.5
774	419.63
775	249.81
776	141.96
777	68.96
778	62.29
779	9.53
780	2.73
781	-3.72
782	-5.86
783	-8.84
784	-6.75
785	-6.91
786	-8.18
787	11.05
788	26.66
789	3.53
790	9.76
791	4.21
792	15.18
793	20.9
794	-7.57
795	207.89
796	275.58
797	184.39
798	19.23
799	12.27
800	4.58
801	121.31
802	466.06
803	258.94
804	105.24
805	26.42
806	8.38
807	3.26
808	9.5
809	1.71
810	39.66
811	460.07
812	1167.79
813	723.26
814	302.61
815	30.43
816	10.69
817	1.19
818	-17.4
819	-0.79
820	-12.88
821	-0.04
822	-0.66
823	-7.36
824	0.44
825	-16.57
826	0.66
827	164.09
828	91.91
829	37.11
830	-6.52
831	-12.76
832	-13.55
833	-10.01
834	-9.62
835	1.23
836	-5.39
837	-1.92
838	-8.55
839	24.96
840	-1.79
841	234.45
842	292.67
843	567.14
844	298.76
845	133.96
846	49.84
847	-1.69
848	9.33
849	0.48
850	-11.69
851	-2.95
852	42.15
853	137.63
854	83.68
855	28.42
856	-6.37
857	-2.45
858	-9.29
859	-11.43
860	-17.94
861	-1.79
862	8.11
863	8.43
864	14.02
865	16.49
866	31.35
867	57.22
868	69.43
869	49.33
870	43.36
871	47.24
872	44.05
873	30.73
874	6.74
875	8.31
876	-2.77
877	-0.84
878	1.47
879	-10.69
880	5.23
881	2.04
882	0.02
883	17.15
884	24.06
885	33.41
886	44.78
887	34.54
888	36.15
889	47.04
890	93.21
891	34.23
892	34.63
893	2.3
894	2.01
895	-6.71
896	-1.29
897	1.11
898	-12.81
899	-8.22
900	16.39
901	-21.96
902	-6.56
903	-3.1
904	-8.14
905	-2.27
906	-4.21
907	-1.74
908	-10.19
909	-1.43
910	-12.52
911	-1.41
912	60.49
913	214.22
914	74.77
915	40.01
916	11.23
917	-16.37
918	-14.56
919	-5.68
920	-10.19
921	-8.83
922	-7.71
923	26.72
924	-6.76
925	-2.84
926	-9.05
927	-6.23
928	-12.56
929	-12.82
930	-1.95
931	56.06
932	-12.91
933	-14.8
934	-13.61
935	-17.9
936	6.65
937	-5.01
938	-25.32
939	5.91
940	-11.18
941	-12.97
942	-14.84
943	-10.19
944	-7.15
945	-11.49
946	-4.62
947	-15.83
948	-13.59
949	-7.07
950	-6.96
951	-6.53
952	-4.73
953	-14.36
954	-20.65
955	-15.63
956	-13.01
957	-11.04
958	34.15
959	-15.84
960	-18.77
961	-12.17
962	-6.09
963	-8.9
964	-11.35
965	-14
966	-17.36
967	4.97
968	1.69
969	-10.64
970	-14.85
971	-15.62
972	-18.46
973	12.4
974	-21.7
975	-13.35
976	-4.91
977	-5.9
978	-15.91
979	-9.47
980	-8.83
981	-18.09
982	-10.48
983	-11.57
984	-8.68
985	-1.62
986	-14.37
987	-15.42
988	-10.92
989	-19.99
990	-18.26
991	-16.4
992	-17.22
993	-12.05
994	-14.39
995	-2.77
996	-8.12
997	-2.76
998	-15.75
999	-9.96
1000	4.2
