Data from Argon1000V223mT_1000ms_USB2G486391__3__00103.txt Node

Date: Thu Oct 21 16:46:05 EDT 2021
User: phys191
Spectrometer: USB2G48639
Scans to average: 1
Trigger mode: 4
Integration Time (sec): 1.000000E0
Electric dark correction enabled: true
Boxcar width: 0
XAxis mode: Wavelengths
Number of Pixels in Spectrum: 651
>>>>>Begin Spectral Data<<<<<
350	6.33
351	-9.76
352	-8.14
353	-2.35
354	13.93
355	16.6
356	26.27
357	72.48
358	71.28
359	24.95
360	-7.87
361	-7.21
362	-8.91
363	0.5
364	-14.29
365	-4.04
366	-1.79
367	-10.25
368	20.05
369	25.2
370	4.14
371	40.53
372	10.7
373	10.71
374	8.65
375	15.74
376	42.5
377	20.25
378	1.77
379	4.75
380	29.51
381	88.43
382	13.92
383	-10.34
384	-3.32
385	1.56
386	1.73
387	-8.43
388	-8.28
389	-5.44
390	2.55
391	7.92
392	25.04
393	8.57
394	4.66
395	9.89
396	-3.03
397	-4.28
398	32.15
399	15.08
400	33.59
401	47.22
402	-2.24
403	2.86
404	251.08
405	50.15
406	62.36
407	49.65
408	12.38
409	10.45
410	-9.1
411	3.55
412	-5.72
413	17.87
414	21.42
415	6.04
416	18.24
417	43.43
418	3.59
419	11.85
420	77.77
421	137.31
422	26.02
423	11.02
424	12.74
425	24.55
426	40.89
427	165.52
428	138.87
429	74.45
430	9.88
431	41.86
432	8.89
433	13.91
434	81.67
435	113.5
436	60.47
437	13.55
438	37.24
439	26.27
440	1.38
441	29.94
442	7.72
443	29.59
444	32.7
445	4.04
446	-5.46
447	-3
448	10.6
449	39.12
450	5.64
451	10.6
452	45.36
453	14.83
454	17.65
455	75.66
456	49.54
457	42.77
458	26.67
459	52.6
460	76.54
461	46.14
462	95.16
463	14.12
464	8.16
465	53.62
466	54.31
467	55.52
468	14.33
469	-10
470	-10.21
471	7.65
472	4.75
473	21.48
474	51.58
475	15.04
476	5.24
477	85.19
478	70.92
479	3.34
480	6.42
481	26.41
482	37.76
483	9.04
484	10.17
485	12.37
486	33.98
487	138.37
488	74.58
489	115.16
490	55.79
491	15.58
492	18.66
493	137.57
494	47.37
495	14.17
496	30.54
497	84.37
498	14.51
499	2.47
500	-9.53
501	-2.66
502	17.62
503	14.32
504	0.02
505	13.19
506	6.29
507	5.94
508	17.6
509	-5.12
510	-4.53
511	-5.69
512	-8.18
513	-5.47
514	-2.91
515	14.42
516	15.18
517	24.77
518	8.74
519	23.56
520	29.36
521	0.25
522	9.25
523	15.02
524	9.21
525	10.88
526	8.65
527	10.2
528	-2.15
529	2.09
530	-3.43
531	-6.71
532	2.83
533	-4.27
534	-11.63
535	-7.18
536	13.12
537	12.61
538	14.23
539	15.52
540	16.37
541	3.53
542	19.48
543	11.71
544	21.32
545	14.16
546	24.99
547	15.28
548	11.84
549	3.09
550	26.08
551	35.83
552	7.36
553	6.94
554	5.51
555	1.47
556	14.28
557	26.75
558	35.3
559	8.93
560	9.97
561	36.29
562	28.16
563	9.14
564	4.94
565	1.25
566	14.12
567	14.43
568	-1.93
569	8.26
570	0.84
571	-1.31
572	-4.6
573	15.75
574	29.13
575	103.8
576	61.9
577	31.52
578	36.56
579	57.64
580	53.76
581	58.74
582	80.19
583	50.02
584	50.4
585	63.78
586	62.92
587	46.65
588	106.76
589	78.64
590	95.11
591	71.01
592	114.79
593	69.21
594	71.19
595	68.89
596	68.46
597	44.67
598	45.3
599	52.69
600	60.18
601	73.01
602	84.74
603	59.17
604	123.43
605	122.83
606	104.72
607	90.1
608	63.45
609	26.2
610	34.97
611	47.8
612	58.95
613	65.57
614	58.02
615	16.42
616	27.93
617	29.2
618	54.1
619	31.56
620	14.59
621	3.44
622	30.86
623	19.07
624	18.53
625	14.54
626	13.21
627	5.52
628	10.45
629	13.02
630	66.31
631	47.73
632	61.75
633	37.17
634	13.64
635	12.58
636	17.85
637	48.98
638	60.19
639	107.4
640	71.34
641	42.03
642	114.13
643	61.01
644	90.03
645	92.46
646	109.04
647	127.35
648	82.26
649	41.81
650	51.1
651	83.31
652	149.05
653	176.76
654	169.51
655	157.39
656	124.47
657	434.77
658	269.84
659	175.23
660	191.87
661	230.57
662	221.4
663	216.82
664	124.48
665	81.25
666	76.7
667	134.1
668	215.34
669	223.16
670	217.25
671	242.08
672	119.86
673	75.07
674	55.26
675	88.05
676	187.7
677	195.87
678	163.17
679	157.35
680	109.87
681	46.61
682	20.9
683	20.27
684	114.25
685	44.93
686	53.67
687	61.08
688	135.84
689	112.37
690	37.97
691	14.69
692	-5.16
693	-0.76
694	19.25
695	27.26
696	41.24
697	296.91
698	256.14
699	78.46
700	15.25
701	-2.98
702	5.41
703	2.43
704	33.09
705	8.42
706	3.18
707	199.44
708	246.82
709	89.82
710	5.33
711	3.15
712	5.45
713	20.48
714	28.21
715	39.97
716	18.09
717	13.55
718	9.06
719	2.51
720	-4.19
721	37.13
722	28.31
723	45.16
724	37.64
725	91.81
726	63.79
727	75.71
728	113.56
729	77.84
730	28.31
731	22.14
732	31.04
733	35.64
734	61.51
735	92.88
736	127.29
737	126.49
738	174.86
739	529.71
740	330.06
741	134.18
742	50.24
743	103.14
744	65.11
745	100.22
746	104.45
747	146.87
748	153.76
749	175.84
750	226.89
751	2082.22
752	2188.29
753	1071.98
754	283.08
755	57.13
756	43.08
757	64.06
758	103.08
759	127.66
760	148.53
761	143.02
762	143
763	221.85
764	1315.3
765	940.41
766	364.21
767	63.07
768	45.78
769	53.08
770	95.4
771	132.81
772	175.29
773	599.53
774	435.51
775	243.04
776	134.64
777	78.83
778	65.17
779	9.78
780	3.73
781	-3.31
782	-9.91
783	-1.6
784	-3.7
785	-5.34
786	0.89
787	9.66
788	32.51
789	0.85
790	15.36
791	3.37
792	12.17
793	29.65
794	-3.23
795	218.26
796	278.84
797	187.81
798	19.65
799	9.14
800	5.42
801	119.89
802	454.71
803	252.61
804	99.58
805	17.98
806	8.44
807	-1.96
808	7.77
809	3.99
810	31.81
811	442.42
812	1174.92
813	722.23
814	296.33
815	33.74
816	14.85
817	9.17
818	-10.87
819	5.86
820	-9.98
821	0.19
822	-0.5
823	-16.59
824	6.82
825	-2.59
826	4.13
827	169.46
828	101.69
829	37.26
830	-5.24
831	-9.38
832	-5.49
833	-1.39
834	1.03
835	0.58
836	-3.03
837	-3.72
838	-4.55
839	22.2
840	0.73
841	227.19
842	274.59
843	579.14
844	303.09
845	148.51
846	51.57
847	-2.69
848	10.56
849	4.46
850	-5.57
851	-7.84
852	46.4
853	142.91
854	99.81
855	19.97
856	-2.34
857	-7.83
858	-5.16
859	-10.51
860	-11.35
861	7.76
862	14.43
863	8.59
864	5.47
865	15.23
866	38.52
867	64.32
868	58.37
869	43.9
870	43.84
871	53.6
872	34.55
873	38.63
874	11.2
875	10.54
876	0.57
877	-3.74
878	2.86
879	-6.28
880	4.14
881	4.19
882	4.16
883	13.43
884	21.79
885	34.6
886	45.69
887	39.36
888	35.79
889	60.92
890	90.94
891	45.01
892	42.13
893	8.39
894	0.62
895	-1.62
896	-6.36
897	-6.75
898	-9.1
899	-13.91
900	22.92
901	-9.13
902	-4.19
903	-1.89
904	-6.25
905	-0.3
906	-4.15
907	-6.21
908	-7.66
909	-5.5
910	-17.35
911	-2.16
912	54.24
913	229.98
914	74.09
915	41.73
916	9.19
917	-12.44
918	-12.05
919	2.03
920	-4.91
921	-11.69
922	-12.62
923	27.67
924	-6.13
925	1.75
926	-5.37
927	-8.23
928	-15.62
929	-9.37
930	-7.08
931	59.92
932	-5.49
933	-6.03
934	-10.58
935	-13.04
936	7.26
937	-5.1
938	-26.79
939	5.99
940	-3.91
941	-9.28
942	-7.79
943	-15.07
944	-6.21
945	-10.53
946	-0.41
947	-12.19
948	-12.16
949	-1.28
950	-5.85
951	-8.63
952	-0.17
953	-9.49
954	-17.67
955	-6.65
956	-7.55
957	-11.88
958	41.48
959	-10.98
960	-7.03
961	-13.89
962	-8.89
963	-4.36
964	-6.44
965	-17.07
966	7.09
967	-1.23
968	-2
969	-8.74
970	-9
971	-12.31
972	-6.86
973	14.79
974	-13.5
975	-2.53
976	5.49
977	-7.31
978	-14.76
979	-2.4
980	-6.99
981	-17.06
982	-5.37
983	-6.64
984	-6.81
985	-3.24
986	-7.19
987	-9.22
988	-15.96
989	-17.22
990	-11.92
991	-16.67
992	-8.53
993	-12.63
994	-11.1
995	1.94
996	-14.44
997	-13.62
998	-10.83
999	-6.84
1000	-4.35
