Data from Argon1000V710mTAnode_USB2G486391__3__17-14-14-963.txt Node

Date: Thu Oct 28 17:14:14 EDT 2021
User: phys191
Spectrometer: USB2G48639
Scans to average: 1
Trigger mode: 4
Integration Time (sec): 1.000000E0
Electric dark correction enabled: true
Boxcar width: 0
XAxis mode: Wavelengths
Number of Pixels in Spectrum: 651
>>>>>Begin Spectral Data<<<<<
350	9.46
351	-2.81
352	-0.57
353	-2.85
354	-3.23
355	4.08
356	14.5
357	37.22
358	2.76
359	-0.61
360	0.03
361	0.45
362	-2.33
363	4.72
364	-2.74
365	1.7
366	5.58
367	-0.75
368	24.73
369	34.49
370	13.17
371	40.49
372	8.55
373	11.51
374	0.44
375	4.84
376	6.01
377	6.24
378	-5.79
379	-1.41
380	-0.38
381	5.71
382	1.99
383	-7.3
384	-4.37
385	-0.18
386	6.67
387	-1.62
388	-3.89
389	-1.12
390	-2.78
391	-0.89
392	3.99
393	7.11
394	8.71
395	2.53
396	8.46
397	4.51
398	21.18
399	-0.07
400	-0.69
401	19.69
402	-3.99
403	9.88
404	225.79
405	24.78
406	17.65
407	7.39
408	4.26
409	9.53
410	6.27
411	2.69
412	8.98
413	156.24
414	8.45
415	0.57
416	21.92
417	68.94
418	5.99
419	10.13
420	53.85
421	128.28
422	7.98
423	8.6
424	4.93
425	6.98
426	21.54
427	109.44
428	78.08
429	30.65
430	10.62
431	33.81
432	8.73
433	8.22
434	55.17
435	59.52
436	28.93
437	9.56
438	23.92
439	14.29
440	3.44
441	24.95
442	1.3
443	14.2
444	19.68
445	0.85
446	1.9
447	-5.88
448	1.4
449	19.25
450	-6.5
451	8.38
452	42.08
453	18.29
454	17.47
455	40.88
456	28.38
457	26.54
458	4.17
459	16.35
460	35.4
461	21.38
462	39.28
463	8.82
464	8.36
465	42.46
466	25.83
467	24.05
468	11.31
469	-12.31
470	-3.84
471	-0.25
472	1.98
473	6.22
474	19.47
475	2.47
476	8.05
477	40.7
478	32.47
479	-1.7
480	4.93
481	17.29
482	5.06
483	0.06
484	0
485	6.3
486	11.79
487	50.75
488	31.07
489	56.85
490	16.93
491	5.17
492	17.64
493	317.54
494	46.83
495	18.07
496	6.79
497	73.68
498	5.62
499	3.9
500	-8.37
501	1.61
502	9.51
503	4.71
504	5.36
505	1.73
506	-3.88
507	5.34
508	11.08
509	-0.38
510	2.77
511	-2.27
512	-5.9
513	1.55
514	-2.66
515	8.14
516	17.31
517	14.24
518	-6.1
519	6.06
520	22.25
521	-0.86
522	-2.47
523	11.65
524	-4.95
525	8.49
526	2.66
527	5.23
528	-6.25
529	-3.3
530	-7.1
531	-7.62
532	3.53
533	3.14
534	-1.42
535	-6.17
536	3.48
537	6.31
538	3.02
539	3.44
540	-4.41
541	-10.36
542	4.56
543	6.75
544	2.34
545	-0.52
546	1.48
547	-0.38
548	0.53
549	-8.05
550	11.55
551	23.29
552	10.9
553	3.41
554	-5.56
555	6.14
556	2.04
557	15
558	12.5
559	0.47
560	10.28
561	19.67
562	20.39
563	7.14
564	1.22
565	1.06
566	5.58
567	13.87
568	3.45
569	-0.83
570	0.64
571	-1.44
572	2.48
573	-9.5
574	-0.87
575	62.3
576	24.43
577	-3.41
578	1.26
579	-2.09
580	-0.15
581	-3.19
582	37.43
583	2.13
584	-2.1
585	-4.31
586	-13.09
587	-0.83
588	60.47
589	16.05
590	18.73
591	8.81
592	52.56
593	23.75
594	1.48
595	11.63
596	2.92
597	-2.28
598	9.98
599	3.59
600	-6.82
601	1.22
602	20.11
603	4.45
604	40.57
605	34.54
606	14.3
607	19.33
608	6.35
609	-1.82
610	1.86
611	10.58
612	18.36
613	11.47
614	24.72
615	1.78
616	3.27
617	14.59
618	17.41
619	6
620	-7.45
621	-3.59
622	-0.45
623	4.51
624	1.77
625	-6.55
626	4.18
627	-3.24
628	1.39
629	-3
630	22.88
631	6.98
632	5.49
633	-3.87
634	-3.31
635	-8.54
636	-11.83
637	-2.88
638	-4.23
639	28.68
640	2.05
641	4.12
642	76.34
643	17.2
644	10.68
645	3.73
646	4.41
647	9.53
648	3.51
649	1.01
650	-1.48
651	-0.91
652	11.78
653	29.45
654	5.7
655	1.53
656	9.66
657	134.37
658	62.17
659	14.92
660	5.62
661	29.3
662	1.48
663	15.18
664	-3.03
665	-3.34
666	4.75
667	12.37
668	18.86
669	17.73
670	14.12
671	49.42
672	-2.63
673	6.51
674	4.2
675	9.34
676	53.48
677	40.26
678	12.66
679	-6.42
680	-5.46
681	-8.19
682	-2.1
683	2.31
684	65.88
685	2.1
686	3.82
687	14.39
688	71.77
689	65.91
690	24.34
691	7.45
692	-3.2
693	-1.9
694	18
695	29.55
696	44.83
697	391.33
698	371.45
699	109.44
700	20.83
701	-1.64
702	0.57
703	-1.26
704	38.38
705	11.47
706	9.17
707	248.21
708	349.6
709	117.28
710	17.65
711	3.75
712	5.03
713	9.63
714	5.48
715	25.29
716	27.56
717	9.66
718	7.65
719	-5.21
720	-16.76
721	13.95
722	17.05
723	0.1
724	-0.97
725	45.44
726	10.6
727	17.61
728	94.7
729	63.07
730	17.66
731	-0.07
732	17.05
733	8.44
734	5.94
735	8.7
736	28.33
737	26.39
738	75.51
739	598.08
740	368.75
741	128.48
742	35.74
743	79.41
744	42.45
745	32.36
746	20.72
747	13.27
748	21.74
749	36.54
750	73.96
751	2828.2
752	3027.34
753	1462.97
754	367.99
755	49.88
756	21.85
757	17.03
758	9.6
759	7.84
760	18.9
761	11.46
762	15.07
763	77.74
764	1905.35
765	1420.21
766	501.48
767	63.56
768	3.76
769	-4.27
770	10.44
771	15.61
772	29.33
773	651.88
774	386.12
775	137.52
776	19.4
777	2.81
778	25.1
779	-1.83
780	-2.44
781	-5.25
782	-6.78
783	-6.88
784	-0.17
785	-1.09
786	-9.01
787	1.56
788	26.27
789	0.31
790	8.42
791	4.11
792	18.28
793	27.3
794	2.81
795	296.13
796	447.35
797	232.81
798	37.68
799	6.41
800	7.68
801	192.95
802	684.32
803	375.31
804	141.92
805	31.26
806	12.82
807	2.96
808	16.33
809	7.56
810	30.74
811	628.55
812	1749.17
813	1107.99
814	428.17
815	66.53
816	30.09
817	11.8
818	-6.01
819	9.31
820	3.51
821	2.26
822	3.59
823	-0.44
824	6.67
825	-11.08
826	7.08
827	248.02
828	148.21
829	52.53
830	5.03
831	-0.94
832	-1.41
833	0.86
834	2.1
835	-1.59
836	0.02
837	2.18
838	5.31
839	26.5
840	10.76
841	333.87
842	450.73
843	901.73
844	472.66
845	197.72
846	65.62
847	5.38
848	7.87
849	5.79
850	-10.15
851	-7.92
852	51.94
853	231
854	104.47
855	32.19
856	-1.96
857	3.03
858	-5.93
859	-0.32
860	-13.99
861	4.85
862	3.18
863	-7.14
864	4.38
865	-10.87
866	2.75
867	22.35
868	27.5
869	6.91
870	-5.54
871	8.22
872	0.18
873	0.97
874	-7.06
875	-5.24
876	-6.26
877	-0.44
878	0.41
879	-8.91
880	1.94
881	0.62
882	-8.94
883	-1.25
884	-15.49
885	-7.36
886	-5.44
887	-3.24
888	1.76
889	-0.17
890	40.66
891	-10.06
892	-2.91
893	-7.38
894	-7.7
895	-4.82
896	-4.31
897	1.44
898	-8.12
899	-20.03
900	27.86
901	-6.58
902	5.73
903	1.38
904	0.65
905	-0.69
906	-3.35
907	1.27
908	-6.09
909	-1.21
910	0.94
911	6.12
912	57.4
913	417.35
914	131.73
915	74.39
916	27.38
917	-3.18
918	-5.63
919	-1.27
920	4.94
921	-2.44
922	1.07
923	60.91
924	7.91
925	13.68
926	1.4
927	-3.77
928	-2.81
929	-5.43
930	1.77
931	63.78
932	-5.02
933	-3.52
934	2.93
935	-4.94
936	13.8
937	-4.07
938	-9.48
939	8.34
940	-3.94
941	-7.27
942	-10.59
943	-6.76
944	2.7
945	-6.83
946	3.07
947	-7.87
948	-6.54
949	5.73
950	-8.52
951	-4.23
952	8.39
953	-5.22
954	-5.58
955	-7.27
956	-7.73
957	-9.42
958	44.05
959	-6.49
960	-10.71
961	-8.15
962	-5.79
963	5.5
964	-1.19
965	-10.84
966	28.23
967	19.15
968	2.65
969	-0.01
970	2.21
971	-6.5
972	-3.19
973	23.59
974	-3.58
975	-9.38
976	11.85
977	1.65
978	-5.98
979	1.64
980	-3.35
981	-8.65
982	-0.58
983	-0.71
984	2.52
985	12.8
986	-6.17
987	-2.41
988	-2.51
989	-4.94
990	0.72
991	-12.92
992	-2.3
993	5.94
994	-8.86
995	7.27
996	-6.17
997	9.71
998	0.41
999	3.06
1000	7.19
