Data from Argon1000V710mTVCathode_USB2G486391__1__17-15-08-203.txt Node

Date: Thu Oct 28 17:15:08 EDT 2021
User: phys191
Spectrometer: USB2G48639
Scans to average: 1
Trigger mode: 4
Integration Time (sec): 1.000000E0
Electric dark correction enabled: true
Boxcar width: 0
XAxis mode: Wavelengths
Number of Pixels in Spectrum: 651
>>>>>Begin Spectral Data<<<<<
350	1.21
351	-0.07
352	-1.42
353	-0.75
354	1.03
355	8.47
356	12
357	35.98
358	0.4
359	6.15
360	0.46
361	-2.4
362	0.88
363	0.66
364	-2.73
365	-1.27
366	-3.2
367	6.92
368	22.49
369	35.95
370	5.74
371	31.51
372	4.14
373	14.13
374	4.53
375	5.01
376	6.33
377	9.25
378	3.59
379	-3.31
380	-5.44
381	0.94
382	7.31
383	2.46
384	4
385	10.45
386	15.65
387	-0.73
388	-2.5
389	-2.85
390	5.02
391	-1.54
392	1.12
393	8.88
394	1.6
395	10.21
396	14.2
397	-2.05
398	19.68
399	2.65
400	3.25
401	29.88
402	0.8
403	10.62
404	242.99
405	45.66
406	28.12
407	10.14
408	18.33
409	22.45
410	4.53
411	17.63
412	8.71
413	44.05
414	19.35
415	8.18
416	60.16
417	162.09
418	20.15
419	42.91
420	168.66
421	297.5
422	45.45
423	7.62
424	18.32
425	20.77
426	64.34
427	250.12
428	184.21
429	71.42
430	17.25
431	79.73
432	16.93
433	2.23
434	138.86
435	139.25
436	67.31
437	15.56
438	47.48
439	29.55
440	14.34
441	36.63
442	10.81
443	34.67
444	44.58
445	8.75
446	8.31
447	-1.62
448	10.39
449	31.65
450	11.81
451	37.31
452	118.65
453	48.55
454	22.65
455	75.49
456	50.72
457	32.39
458	20.85
459	55.14
460	77.62
461	60.03
462	83.5
463	24.07
464	19.12
465	58.77
466	51.43
467	58.15
468	24.45
469	-5.24
470	2.68
471	26.21
472	11.22
473	24.47
474	57.52
475	22.96
476	20.3
477	96.51
478	63.59
479	8.02
480	12.24
481	40.27
482	31.49
483	14.27
484	13.68
485	13.98
486	49.95
487	184.27
488	93.8
489	123.92
490	60.02
491	19.96
492	27.55
493	339.03
494	60.77
495	31.32
496	19.16
497	97.01
498	32.95
499	10.42
500	3.29
501	-4.83
502	32.7
503	19.84
504	12.27
505	13.06
506	17
507	31.4
508	24.22
509	11.23
510	9.63
511	4.46
512	2.55
513	8.79
514	5.04
515	21.88
516	33.45
517	49.59
518	23.53
519	37.94
520	73.27
521	18.37
522	7.07
523	47.74
524	16.23
525	20.06
526	32.32
527	29.68
528	9.2
529	1.65
530	5.12
531	3.95
532	16.53
533	7.98
534	-0.85
535	11.2
536	15.15
537	8.55
538	7.96
539	14.71
540	5.82
541	4.19
542	12.95
543	12.59
544	12.39
545	25.88
546	42.59
547	31.74
548	24.12
549	3.19
550	57.27
551	73.63
552	27.1
553	10.95
554	7.66
555	18.92
556	37.17
557	74.82
558	58.5
559	27.18
560	24.77
561	78.98
562	80.49
563	34.35
564	18.48
565	22.9
566	41.87
567	31.43
568	7.02
569	23.67
570	23.03
571	12.2
572	4.84
573	8.4
574	18.6
575	96.89
576	41.81
577	3.35
578	11.23
579	13.26
580	18.98
581	15.22
582	40.06
583	11.36
584	20.93
585	10.3
586	12.98
587	19.61
588	66.75
589	57.15
590	71.17
591	30.03
592	132.2
593	75.62
594	54.95
595	38.51
596	17.27
597	12.04
598	22.17
599	15.68
600	14.76
601	24.25
602	33.53
603	40.38
604	185.62
605	149.33
606	92.45
607	60.66
608	26.24
609	13.29
610	25.86
611	62.37
612	55.27
613	37.78
614	45.16
615	30.96
616	43.69
617	42.94
618	86.7
619	30.22
620	7.9
621	5.57
622	47.52
623	31.71
624	15.83
625	6.24
626	13.94
627	7.68
628	9.66
629	-4.85
630	51.25
631	42.07
632	30.54
633	11.22
634	0.02
635	-5.64
636	-11.53
637	0.6
638	26.54
639	73.92
640	29.04
641	15.32
642	142.21
643	101.94
644	47.01
645	19.39
646	18.33
647	24.48
648	20.99
649	7.31
650	9.04
651	14.85
652	26.3
653	41.49
654	18.99
655	19.23
656	40.39
657	568.2
658	307.19
659	90.44
660	16.14
661	39.73
662	20.03
663	25.38
664	4.71
665	6.5
666	19.93
667	26.61
668	68.17
669	90.75
670	44.18
671	62.99
672	7.95
673	9.53
674	19.09
675	15.14
676	225.36
677	148.43
678	66.23
679	14.42
680	9.59
681	4.66
682	9.83
683	5.29
684	82.83
685	8.64
686	10.2
687	36.69
688	244.11
689	173.81
690	80.09
691	21.15
692	9.83
693	6.44
694	54.98
695	95.74
696	89.8
697	1356.8
698	1241.37
699	390.42
700	81.41
701	14.34
702	14.11
703	38.38
704	166.49
705	74.42
706	29.01
707	775.67
708	1178.9
709	406.42
710	79.73
711	28.38
712	18.58
713	36.15
714	30.95
715	84.29
716	95.64
717	53.56
718	22.67
719	6.73
720	0.08
721	62.83
722	54.22
723	31.6
724	6.98
725	58.74
726	14.43
727	43.93
728	285.96
729	194.73
730	66.54
731	32.69
732	70.65
733	50.65
734	32.81
735	32.71
736	102.75
737	89.8
738	271.08
739	1917.91
740	1234.17
741	438.85
742	110.29
743	156.71
744	119.23
745	104.53
746	65.48
747	64.8
748	95.03
749	103.64
750	335.32
751	3787.19
752	3828.95
753	3825.5
754	3828.95
755	282.07
756	83.32
757	54.42
758	42.5
759	39.67
760	50.23
761	52.54
762	56.92
763	147.1
764	3828.95
765	3828.95
766	2817.84
767	250.47
768	79.57
769	46.1
770	38.15
771	38.21
772	76.69
773	1986.46
774	1273.43
775	475.45
776	65.48
777	25.68
778	46.7
779	14.53
780	9.69
781	14.48
782	11.82
783	4.35
784	-1.65
785	7.27
786	7.44
787	17.79
788	46.64
789	18.33
790	34.23
791	23.23
792	38.41
793	51.66
794	25.94
795	908.54
796	1402.67
797	689.91
798	138.54
799	46.44
800	41.25
801	542.49
802	1993.94
803	1180.53
804	464.96
805	110.41
806	60.84
807	39.51
808	50.5
809	34.61
810	126.04
811	1913.24
812	3828.95
813	3794.83
814	1426.66
815	216.75
816	55.91
817	32.1
818	14.78
819	23.5
820	11.86
821	15.38
822	16.07
823	11.09
824	21.63
825	9.21
826	36.04
827	739.71
828	457.71
829	204.15
830	35.05
831	12.99
832	10.87
833	8.34
834	16.78
835	24.12
836	27.07
837	27.21
838	16.14
839	54.76
840	35.39
841	960.46
842	1323.4
843	2646.77
844	1448.86
845	606.47
846	154.36
847	20.04
848	17.63
849	7.46
850	6.01
851	8.71
852	144.06
853	632.61
854	304.75
855	110.85
856	14.86
857	3.69
858	6.52
859	5.32
860	-9.48
861	14.54
862	23.82
863	11.4
864	2.45
865	-3.29
866	10.31
867	87.29
868	99.87
869	36.81
870	14.57
871	9.89
872	2.47
873	2.88
874	0.05
875	0.75
876	-2.87
877	11.86
878	4.87
879	1.17
880	14.38
881	6.16
882	-3.14
883	4.64
884	-4.25
885	-0.78
886	5.88
887	5.16
888	1.29
889	4.79
890	47.41
891	-0.76
892	4.29
893	-3.61
894	-3.65
895	-5.95
896	2.95
897	2.78
898	6.86
899	-0.9
900	34.71
901	-1.55
902	5.9
903	6.76
904	8.33
905	7.73
906	2.36
907	7.71
908	12.6
909	9.88
910	-0.22
911	17.31
912	176.61
913	1162.5
914	383.19
915	213.8
916	114.68
917	10.01
918	11.06
919	6.17
920	21.16
921	8.01
922	16.12
923	175.99
924	56.58
925	36.52
926	16.82
927	-9.53
928	-2.87
929	-1.44
930	9.31
931	64.05
932	7.13
933	-4.14
934	4.05
935	-0.28
936	25.88
937	0.72
938	-11.33
939	13.82
940	-0.76
941	-3.01
942	-0.99
943	4.15
944	-1.9
945	-5.03
946	6.12
947	1.17
948	-3.5
949	11.66
950	-1.13
951	1.46
952	13.23
953	4.98
954	-1.58
955	-0.49
956	9.1
957	-1.61
958	47.1
959	-1.57
960	13.22
961	-3.04
962	1.39
963	2.91
964	3.86
965	-5.36
966	58.88
967	65.8
968	27.51
969	17.67
970	13.01
971	-1.03
972	-0.99
973	21.56
974	-7.7
975	-2.24
976	14.09
977	-8.04
978	-1.63
979	9.13
980	4.88
981	-0.41
982	6.85
983	6.04
984	1.92
985	7.13
986	1.21
987	-1.46
988	2.26
989	-7.88
990	-5.3
991	-8.04
992	2.17
993	5.41
994	-9.2
995	11.86
996	-2.26
997	5.93
998	-9.75
999	-3.45
1000	13.06
