Data from Helium1000V245mT_500ms_USB2G486391__4__00077.txt Node

Date: Thu Oct 21 14:34:31 EDT 2021
User: phys191
Spectrometer: USB2G48639
Scans to average: 1
Trigger mode: 4
Integration Time (sec): 5.000000E-1
Electric dark correction enabled: true
Boxcar width: 0
XAxis mode: Wavelengths
Number of Pixels in Spectrum: 651
>>>>>Begin Spectral Data<<<<<
350	5.46
351	-3.14
352	2.01
353	0.14
354	-4.47
355	10.78
356	9.95
357	17.41
358	4.77
359	1.87
360	7.83
361	1.54
362	10.26
363	12.78
364	9.19
365	4.82
366	12.25
367	1.08
368	10.47
369	17.07
370	3.2
371	29.74
372	7.73
373	14.23
374	7.73
375	0.19
376	4.51
377	3.1
378	-4.31
379	-1.3
380	3.11
381	6.47
382	8.62
383	23.43
384	10.85
385	3.56
386	10.91
387	4.46
388	13.43
389	193.67
390	419.01
391	12.16
392	18.06
393	3.18
394	2.23
395	0.09
396	2.06
397	90.96
398	55.59
399	2.64
400	-2.03
401	15.87
402	7.62
403	102.44
404	191.7
405	9.26
406	4.93
407	4.61
408	-0.35
409	3.49
410	-3.22
411	10.56
412	11.9
413	50.05
414	-2.41
415	18.68
416	8.57
417	5.34
418	7.12
419	7.41
420	2.9
421	11.33
422	6.79
423	0.88
424	0.29
425	0.85
426	-1.48
427	19.55
428	11.75
429	1.09
430	-3.43
431	3.99
432	2.16
433	6.42
434	8.71
435	39.13
436	6.14
437	0.35
438	3.02
439	41.84
440	66.31
441	18.53
442	1.03
443	8.34
444	26.05
445	24.18
446	5.22
447	118.65
448	838.16
449	174.86
450	4.07
451	6.9
452	3.42
453	1.34
454	11.58
455	10.93
456	4.73
457	17.9
458	7.7
459	-2.68
460	5.96
461	1.79
462	6.21
463	2.22
464	4.42
465	24.17
466	14.71
467	5.92
468	8.62
469	10.25
470	15.08
471	12.31
472	171.93
473	57.77
474	8.86
475	-0.74
476	5.69
477	1.67
478	11.85
479	6.69
480	6.22
481	3.63
482	7.75
483	7.32
484	7.41
485	8.16
486	18.83
487	108.08
488	35.75
489	20.05
490	9.71
491	13.59
492	89.08
493	650.19
494	220.58
495	29.48
496	13.16
497	43.19
498	8.31
499	14.64
500	13.45
501	51.55
502	2732.17
503	2132.18
504	298.31
505	101.77
506	121.79
507	21.68
508	14.72
509	7.38
510	6.24
511	3.57
512	-7.09
513	-0.47
514	6.24
515	3.21
516	6.98
517	1.34
518	1.73
519	3.36
520	6.79
521	3.77
522	2.07
523	2.83
524	0.65
525	5.74
526	6.16
527	4.26
528	10.74
529	-4.68
530	1.53
531	7.22
532	3.96
533	6.36
534	-0.19
535	-2.9
536	8.86
537	8.13
538	1.98
539	11.43
540	3.12
541	4.42
542	2.92
543	-4.46
544	6.34
545	-1.98
546	1.26
547	1.73
548	6.13
549	4.94
550	6.33
551	6.38
552	-2.79
553	-3.41
554	-0.14
555	3.52
556	2.66
557	-2.77
558	6.43
559	4.69
560	0.9
561	5.79
562	-1.17
563	-1.12
564	3.08
565	-0.99
566	-0.52
567	7.71
568	-1.65
569	0.29
570	-1.52
571	-0.96
572	5.59
573	8.45
574	8.75
575	31.22
576	17.02
577	11.1
578	4.63
579	5.03
580	4.98
581	2.44
582	27.09
583	14.92
584	5.16
585	4.68
586	6.36
587	18.47
588	910.02
589	688.61
590	181.02
591	19.55
592	22.83
593	7.78
594	0.07
595	5.58
596	2.89
597	2.98
598	8.07
599	3.78
600	-1.33
601	4.16
602	12.37
603	-3.56
604	2.19
605	-1.26
606	-2.57
607	-0.75
608	-1.13
609	-2
610	3.71
611	-1.56
612	4.86
613	5.68
614	9.43
615	0.76
616	4.57
617	7.69
618	6.49
619	-0.31
620	0.65
621	1.37
622	-4.92
623	-3.21
624	3.8
625	-4.93
626	1.16
627	-0.09
628	1.31
629	2.01
630	15.45
631	6.53
632	6.93
633	0.96
634	2.22
635	-3.1
636	-4.09
637	-1.22
638	3.96
639	16.39
640	8.65
641	7.37
642	35.61
643	0.78
644	3.89
645	4.16
646	8.02
647	11.77
648	5.09
649	1.48
650	-1.4
651	4.62
652	6.99
653	21.95
654	5.62
655	3.88
656	14.72
657	135.95
658	77.77
659	19.53
660	10.73
661	17.21
662	8.22
663	17.26
664	3.87
665	5.98
666	1.47
667	16.01
668	766.2
669	1354.51
670	404.37
671	97.57
672	15.24
673	4.56
674	6.35
675	5.64
676	-1.58
677	2.72
678	-5.31
679	-0.81
680	8.02
681	-1.01
682	4.6
683	-1.44
684	41.97
685	2.15
686	5.25
687	0.06
688	3.52
689	21.89
690	8.67
691	2.24
692	-0.08
693	-1.55
694	6.73
695	5.42
696	14.86
697	-0.22
698	10.35
699	4.05
700	8.14
701	4.05
702	10.55
703	-3.72
704	-5.26
705	3.99
706	2.25
707	340.46
708	253.45
709	71.94
710	11.49
711	1.31
712	0.39
713	-4.97
714	0.07
715	-4.97
716	1.51
717	-3.73
718	5.45
719	-3.85
720	0.03
721	11.55
722	0.11
723	5.86
724	1.36
725	27.18
726	12.96
727	2.83
728	42.9
729	284.26
730	119.52
731	26.36
732	-0.1
733	3.44
734	0.37
735	3.08
736	0.44
737	0.32
738	-4.14
739	2.6
740	0.14
741	3.08
742	12.09
743	26.05
744	1.04
745	-0.02
746	-1.39
747	3.93
748	-1.37
749	-1.61
750	-13.92
751	-14.74
752	-1.3
753	5.86
754	-1.99
755	-3.39
756	0.85
757	-3.83
758	4.18
759	0.24
760	5.8
761	-5.17
762	-0.23
763	28.13
764	4.56
765	6.07
766	2.93
767	-4.48
768	-0.5
769	2.03
770	5.12
771	-0.34
772	1.28
773	5.96
774	-0.09
775	0.28
776	-0.58
777	-6.28
778	25.99
779	9.23
780	7.56
781	-2.9
782	-8.6
783	-1.1
784	-3.87
785	-0.03
786	-6.78
787	-1.55
788	15.54
789	-6.75
790	0.76
791	-3.34
792	3.34
793	10.49
794	-11.24
795	-4.49
796	-3.93
797	20.21
798	4.85
799	-0.72
800	-1.72
801	-0.58
802	21.01
803	5.12
804	4.98
805	4.4
806	2.27
807	-0.51
808	0.83
809	-1.87
810	1.25
811	0.55
812	3.21
813	2.02
814	8.5
815	-2.51
816	8.47
817	2.7
818	-2.72
819	10.81
820	0.88
821	1.76
822	-3.79
823	3.99
824	4.69
825	-3.78
826	3.35
827	6.51
828	5.13
829	5.05
830	-0.44
831	-8.13
832	1.73
833	-4.18
834	7.79
835	-0.82
836	4.24
837	-0.27
838	3.67
839	8.17
840	2.37
841	-4.24
842	2.9
843	-1.53
844	0.65
845	9.63
846	20.83
847	-0.11
848	6.94
849	-1.24
850	-5.62
851	-1.67
852	-4.39
853	0.09
854	10.39
855	-3.94
856	2.34
857	-7.69
858	-1.04
859	-1
860	-3.05
861	-2.91
862	3.5
863	0.22
864	-3.35
865	-3.01
866	-1
867	-0.9
868	1.72
869	-0.98
870	-2.9
871	-1.77
872	-4.88
873	3.22
874	-2.25
875	5.89
876	4.21
877	-1.67
878	1.65
879	-4.85
880	1.9
881	-8.98
882	-4.5
883	1.63
884	-2.16
885	2.13
886	4.32
887	-5.02
888	-2.02
889	4.92
890	23.53
891	-4.15
892	-2.66
893	-2.84
894	-3.12
895	-1.83
896	-2.76
897	-3.88
898	2.14
899	-2.45
900	16.33
901	-2.71
902	-0
903	-1.46
904	0.32
905	8.22
906	5.81
907	-0.2
908	-5.85
909	1.03
910	1.69
911	-0.03
912	6.05
913	-8.55
914	-9.61
915	-1.83
916	-3.2
917	0.61
918	0.33
919	0.62
920	-4.17
921	2.08
922	2.14
923	-7.07
924	-1.11
925	-4.64
926	3.4
927	-8.18
928	2.3
929	0.8
930	-6.38
931	28.94
932	2.52
933	-0.8
934	-4.5
935	-3.81
936	2.81
937	-2.53
938	-3.24
939	7.98
940	-5.39
941	-4
942	0.2
943	-3.69
944	0.33
945	2.74
946	4.23
947	1.08
948	-9.79
949	5.03
950	-2.9
951	1.59
952	0.18
953	-5.6
954	0.45
955	-1.31
956	-2.47
957	-1.84
958	25.39
959	-4.68
960	-5.86
961	-3.92
962	-2.07
963	-0.29
964	-0.87
965	-1.7
966	9.79
967	-2.27
968	-4.92
969	2.57
970	-2.13
971	-2.73
972	4.43
973	8.8
974	-5.1
975	0.68
976	8.89
977	1.79
978	-0.53
979	1.52
980	-2.21
981	1.83
982	4.77
983	-1.96
984	2.81
985	8.72
986	-8.28
987	2.52
988	-0.99
989	-2.31
990	-1.95
991	1.19
992	8.03
993	-2.42
994	-0.66
995	0.18
996	1
997	1.11
998	-2.29
999	-1.01
1000	4.96
