Data from Helium1000V173mT_500ms_USB2G486391__14__00069.txt Node

Date: Thu Oct 21 14:13:29 EDT 2021
User: phys191
Spectrometer: USB2G48639
Scans to average: 1
Trigger mode: 4
Integration Time (sec): 5.000000E-1
Electric dark correction enabled: true
Boxcar width: 0
XAxis mode: Wavelengths
Number of Pixels in Spectrum: 651
>>>>>Begin Spectral Data<<<<<
350	2.32
351	-1.22
352	1.44
353	-0.43
354	-2.12
355	8.14
356	6.19
357	19.02
358	0.7
359	1.53
360	-2.71
361	3.45
362	8.61
363	10.08
364	0.2
365	4.92
366	-1.52
367	0.62
368	10.61
369	16.57
370	0.17
371	19.09
372	4.06
373	4.59
374	4.45
375	-1.79
376	5.79
377	2.3
378	-4.78
379	-3.8
380	3.15
381	-1.67
382	5.47
383	20.26
384	5.47
385	2.78
386	13.51
387	4.79
388	11.54
389	135.88
390	268.55
391	10.51
392	18.85
393	-1.39
394	2.24
395	0.45
396	4.61
397	69.84
398	43
399	0.58
400	4.36
401	20.33
402	5.56
403	71.3
404	164.11
405	9.69
406	1.27
407	1.65
408	2.23
409	5.49
410	7.22
411	7.64
412	6.72
413	37.81
414	9.65
415	14.3
416	5.85
417	1.51
418	5.68
419	2.22
420	-0.22
421	3.61
422	10.78
423	8.07
424	-4.06
425	11.59
426	-2.05
427	12.81
428	15.72
429	9.4
430	-3.96
431	-2.99
432	-6.93
433	0.98
434	11.67
435	26.58
436	11.62
437	2.43
438	0.2
439	37.99
440	56.22
441	14.65
442	10.81
443	-1.21
444	14.11
445	12.3
446	0.8
447	77.16
448	507.27
449	106.07
450	4.79
451	6.6
452	1.42
453	-2.12
454	5.53
455	2.26
456	3.63
457	13.11
458	1.25
459	-1.52
460	-0.99
461	-5.22
462	-4.88
463	-7.49
464	9.54
465	17.42
466	17.12
467	-3.3
468	5.34
469	6.07
470	4.83
471	7.99
472	123.14
473	33.84
474	2.78
475	-7.9
476	1.28
477	-0.47
478	0.01
479	0.94
480	-0.06
481	1.29
482	6.03
483	3.21
484	4.36
485	-0.74
486	12.55
487	81.73
488	22.69
489	11.16
490	7.64
491	14.58
492	71.95
493	588.5
494	156.09
495	14.67
496	10.06
497	42.54
498	6.65
499	10.6
500	4.37
501	30.59
502	1829.39
503	1345.9
504	196.45
505	75.2
506	86.66
507	20.87
508	9.91
509	6.72
510	-1.56
511	0.54
512	-2.32
513	-3.03
514	4.05
515	-4.76
516	0.94
517	0.71
518	-5.46
519	0.25
520	5.91
521	-4.91
522	-1.48
523	0.37
524	-2.87
525	9.04
526	7.47
527	9.94
528	5.04
529	3
530	-0.52
531	-5.44
532	2.72
533	4.8
534	-0.95
535	-0.57
536	9.74
537	10.7
538	4.2
539	0.09
540	4.6
541	6.8
542	-3.57
543	-1.16
544	2.44
545	2.55
546	-2.54
547	2.67
548	5.9
549	1.24
550	3.85
551	3.47
552	-0.4
553	-1.89
554	8.14
555	4.18
556	0.55
557	1.17
558	3.55
559	-8.31
560	8.58
561	4.13
562	3.5
563	-0.33
564	1.27
565	-6.6
566	4.43
567	2.6
568	2.84
569	-2.47
570	-2.9
571	1.76
572	1.03
573	7.11
574	10.29
575	27.36
576	18.43
577	1.22
578	-5.08
579	2.96
580	5.35
581	8.16
582	19.5
583	8.27
584	5.64
585	3.53
586	3.08
587	7.88
588	582.73
589	430.04
590	121.28
591	9.97
592	20.03
593	7.69
594	4.57
595	1.61
596	1.69
597	1.83
598	8.85
599	0.29
600	0.31
601	6.77
602	12.01
603	7.31
604	-1.15
605	3.03
606	-3.03
607	1.64
608	5.59
609	0.84
610	-2.28
611	-4.09
612	3.81
613	-0.14
614	6.56
615	0.17
616	-0.23
617	8.97
618	4.42
619	4.55
620	5.16
621	-0
622	5.51
623	5.21
624	2.11
625	4.19
626	1.62
627	2.47
628	6.94
629	1.43
630	16.8
631	-0.31
632	4.35
633	1.86
634	-0.94
635	-1.97
636	1.18
637	1.51
638	8.33
639	16.51
640	-0.78
641	-0.32
642	30.48
643	5.87
644	4.94
645	3.52
646	7.38
647	12.72
648	3.54
649	1.2
650	3.29
651	5.04
652	12.4
653	20.14
654	5.21
655	-1.25
656	12.92
657	97.66
658	50.05
659	11.75
660	9.14
661	6.4
662	4.93
663	13.5
664	4.43
665	2.27
666	0.67
667	5.42
668	484.67
669	832.22
670	249.55
671	63.33
672	4.43
673	8.21
674	5.83
675	3.82
676	-1.79
677	0.95
678	-3.07
679	5.45
680	4.71
681	3.37
682	1.78
683	-20.57
684	28.14
685	0.24
686	6.27
687	6.57
688	1.24
689	9.84
690	7.5
691	2.06
692	-3.02
693	1.07
694	-0.13
695	0.95
696	15.91
697	3.63
698	5.43
699	1.18
700	3.38
701	1.02
702	3.39
703	-0.61
704	2.38
705	2.07
706	-0.19
707	217.64
708	161.26
709	40.2
710	10.13
711	-0.22
712	3.08
713	2.79
714	2.6
715	-0.57
716	-0.27
717	-1.5
718	1.73
719	-2.98
720	0.99
721	6.89
722	0.44
723	6.11
724	4.87
725	23.84
726	7.02
727	0.39
728	33.42
729	184.66
730	78.83
731	10.64
732	1.04
733	-2.09
734	8.57
735	8.98
736	2.08
737	0.87
738	-1.28
739	-1.52
740	0.3
741	-1.1
742	3.49
743	31.52
744	9.56
745	0.64
746	1.24
747	5.58
748	2.03
749	1.31
750	-0.55
751	-14.11
752	3.06
753	1.77
754	0.46
755	-0.99
756	2.88
757	-0.69
758	1.82
759	3.72
760	3.78
761	-1.16
762	-4.39
763	34.37
764	4.94
765	-5.49
766	-2.49
767	4.37
768	2.89
769	-2.36
770	6.56
771	6.43
772	-1.86
773	1.22
774	6.08
775	-0.88
776	-2
777	4.47
778	13.8
779	5.41
780	9.78
781	6.57
782	-1.5
783	-3.22
784	4.53
785	-0.54
786	-0.88
787	1.53
788	10.71
789	-1.38
790	-5.76
791	4.83
792	5.12
793	9.78
794	-4.54
795	1.58
796	-4.42
797	29.11
798	3.35
799	-2.41
800	2.68
801	0.22
802	20.24
803	-0.73
804	5.79
805	0.44
806	-2.39
807	-1.8
808	3.71
809	-1.95
810	-1.7
811	2.23
812	-3.31
813	-3.35
814	0.83
815	-3.91
816	4.38
817	2.67
818	-5
819	3.97
820	-4.54
821	-0.5
822	2.71
823	-2.02
824	7.12
825	-7.2
826	-1.6
827	9.39
828	3.64
829	4.55
830	-6.21
831	-0.69
832	1.59
833	-6.86
834	-3.96
835	5.12
836	-1.68
837	1.82
838	-1.5
839	12.8
840	-3.73
841	-4.93
842	-1.41
843	-3.49
844	-0.15
845	6.3
846	20.17
847	-6.08
848	3.56
849	0.83
850	-4.01
851	-4.29
852	0.71
853	0.48
854	7.86
855	-0.09
856	-2.96
857	-4.77
858	-1.54
859	-2.09
860	-6.1
861	2.84
862	-3.65
863	-3.25
864	6.25
865	3.33
866	-3.72
867	-0.57
868	6.2
869	-3.75
870	-5.21
871	-0.15
872	4.89
873	2.64
874	-0.89
875	-0.35
876	-1.17
877	4.53
878	-2.08
879	-0.12
880	0.02
881	3.55
882	-0.38
883	1.95
884	-6.06
885	-6.07
886	6.05
887	-1.03
888	-5.15
889	0.84
890	17.41
891	-3.05
892	5.24
893	-3.51
894	1.88
895	-3.48
896	-0.92
897	-0.44
898	-3.62
899	-4.83
900	8.56
901	-5.64
902	2.65
903	2.85
904	-14.81
905	-1.42
906	-1.45
907	0.63
908	3.11
909	-0.44
910	-3.43
911	0.23
912	-0.27
913	-4.14
914	-6.57
915	2.93
916	-4.07
917	-3.99
918	0.88
919	0.49
920	-0.5
921	-9.43
922	-2.93
923	1.37
924	-6.49
925	-6.49
926	3.86
927	-1.19
928	3.8
929	-0.1
930	4.06
931	33.33
932	-1.02
933	-5.26
934	2.11
935	2.28
936	7.62
937	2.8
938	-4.58
939	3.45
940	-0.81
941	-4.57
942	2.48
943	-1.55
944	2.41
945	-2.88
946	7.64
947	-0.98
948	0.94
949	1.02
950	-0.49
951	-0.54
952	6.48
953	-4.96
954	2.98
955	5.41
956	-5.73
957	-2.06
958	22.21
959	-4.5
960	2.97
961	-2.48
962	3.06
963	3.96
964	6.29
965	2.74
966	0.6
967	0.87
968	-9.89
969	1.91
970	8.29
971	2.67
972	1.98
973	9.23
974	-0.3
975	-5.51
976	7.56
977	1.75
978	-4.98
979	2.05
980	3.81
981	-0.56
982	4.68
983	-0.03
984	0.6
985	5.2
986	-9.8
987	-1.66
988	-2.5
989	-7.52
990	1
991	-0.14
992	2.93
993	1.53
994	-1.2
995	1.41
996	5.79
997	0.89
998	3.46
999	0.58
1000	1.77
