Data from Helium1000V173mT_500ms_USB2G486391__16__00071.txt Node

Date: Thu Oct 21 14:13:31 EDT 2021
User: phys191
Spectrometer: USB2G48639
Scans to average: 1
Trigger mode: 4
Integration Time (sec): 5.000000E-1
Electric dark correction enabled: true
Boxcar width: 0
XAxis mode: Wavelengths
Number of Pixels in Spectrum: 651
>>>>>Begin Spectral Data<<<<<
350	6.18
351	-1.88
352	2.04
353	-5.92
354	-0.42
355	4.87
356	2.71
357	22.7
358	6.03
359	-0.08
360	4.82
361	-1.56
362	9.76
363	8.74
364	6.19
365	-0.07
366	-0.98
367	-2.31
368	10.28
369	13.09
370	7.43
371	25.96
372	4.58
373	4.67
374	2.24
375	3.1
376	3.77
377	6.75
378	4.06
379	-8.61
380	-1.89
381	4.07
382	2.02
383	14.87
384	3.35
385	-2.56
386	5.76
387	2.51
388	7.83
389	133.71
390	265.74
391	6.1
392	12.25
393	5.5
394	3.18
395	0.05
396	2.09
397	72.09
398	41.44
399	1.79
400	-1.54
401	14.11
402	12.25
403	72.95
404	166.67
405	4.48
406	-0.86
407	10.73
408	4.34
409	11.53
410	-0.45
411	9.87
412	6.14
413	34.55
414	9.64
415	11.85
416	1.72
417	8.53
418	5.14
419	3.37
420	0.96
421	3.49
422	3.13
423	0.62
424	-1.51
425	5.01
426	1.41
427	11.61
428	7.46
429	2.23
430	3.15
431	6.95
432	1.21
433	-2.8
434	8.56
435	26.34
436	10.37
437	0.92
438	2.11
439	35.88
440	51.71
441	11.48
442	8.72
443	10.21
444	8.46
445	9.94
446	1.23
447	78.34
448	523.61
449	109.78
450	8.73
451	10.76
452	9.42
453	0.92
454	10.35
455	8
456	5.06
457	18.14
458	-3.1
459	-4.05
460	0.07
461	-0.09
462	-1.25
463	0.28
464	4.6
465	23.76
466	13.89
467	2.22
468	12.33
469	4.82
470	8.25
471	12.41
472	130.1
473	40.03
474	3.94
475	0.55
476	9.73
477	6.25
478	-2.62
479	12.3
480	4
481	5.78
482	10.8
483	-0.38
484	8.56
485	9.96
486	21.59
487	84.19
488	22.39
489	13.86
490	9.01
491	13.55
492	75.7
493	586.07
494	150.7
495	18.6
496	10.81
497	42.05
498	8.98
499	9.27
500	1.87
501	30.94
502	1821.52
503	1348.89
504	181.44
505	72.89
506	82.21
507	23.69
508	11.33
509	3.12
510	0.64
511	-1.3
512	-0.48
513	2.26
514	4.74
515	-4.59
516	-3.64
517	-1.77
518	-1.88
519	0.84
520	2.95
521	-0.84
522	-0.85
523	1.24
524	3.55
525	-0.03
526	-2.13
527	6.25
528	-0.11
529	1.12
530	2.03
531	2.13
532	1.66
533	4.38
534	-5.7
535	-1.88
536	3.75
537	2.28
538	2.46
539	3.73
540	1.31
541	-3.45
542	6.88
543	1.92
544	0.75
545	8.03
546	-3.41
547	-0.05
548	3.55
549	-3.16
550	3.38
551	3.8
552	-1.36
553	-2.64
554	-3.2
555	4.11
556	1.4
557	2.53
558	6.24
559	-0.22
560	11.95
561	2.85
562	7.86
563	7.09
564	4.62
565	-0.1
566	-1.15
567	6.67
568	5.79
569	-0.76
570	2.66
571	1.71
572	0.17
573	-0.45
574	0.31
575	27.63
576	16.04
577	5.72
578	4.48
579	6.05
580	5.16
581	0.94
582	17.9
583	-4.88
584	6.85
585	4.27
586	-3.59
587	4.26
588	583.19
589	428.53
590	112.49
591	7.69
592	16.05
593	7.01
594	-8.91
595	5.21
596	-1.12
597	5.12
598	7.3
599	4.78
600	0.23
601	-1.03
602	13.31
603	6.66
604	3.57
605	8.53
606	0.97
607	1.22
608	-0.65
609	0.14
610	-3.07
611	1.76
612	3.55
613	1.09
614	10.25
615	-4.48
616	2.05
617	7.33
618	1.68
619	3.37
620	-0.86
621	-1.96
622	1.17
623	-4.7
624	3.44
625	-0.31
626	3.52
627	-0.57
628	-2.56
629	1.96
630	11.45
631	2.54
632	-0.75
633	-1.98
634	-2.85
635	-3.63
636	-8.81
637	-2.52
638	4.02
639	14.49
640	-7.32
641	0.09
642	30.43
643	4.09
644	2.29
645	4
646	10.61
647	8.09
648	-5.87
649	-5.04
650	1.04
651	4.23
652	11.29
653	12.91
654	6.38
655	1.39
656	6.53
657	120.48
658	42.26
659	14.11
660	3.24
661	11.33
662	3.65
663	5.97
664	0.44
665	3.88
666	7.87
667	-0.33
668	474.66
669	838.79
670	246.75
671	60.84
672	7.23
673	4.66
674	4.26
675	0.84
676	-4.16
677	-0.64
678	1.19
679	-9.87
680	2.76
681	0.48
682	-0.57
683	1.46
684	26.51
685	0.35
686	1.45
687	3.05
688	8.8
689	10.46
690	9.44
691	3.81
692	0.8
693	-1.41
694	5.24
695	3.76
696	21.21
697	2.96
698	11.01
699	3.6
700	1.31
701	4.14
702	1.43
703	-3.01
704	-7.86
705	1.42
706	1.52
707	221.05
708	153.91
709	53.04
710	-0.06
711	4.76
712	3.22
713	-2.75
714	2.08
715	6.97
716	-1.51
717	-0.89
718	1.34
719	-6.12
720	-0.91
721	4.91
722	6.43
723	6.15
724	3.15
725	24.29
726	-0.58
727	8.01
728	36.56
729	200.93
730	74.5
731	13.88
732	-2.2
733	-1.3
734	-0.57
735	-1.34
736	-0.29
737	2.64
738	1.66
739	4.81
740	6.71
741	-0.03
742	4.87
743	20.02
744	1.05
745	2.02
746	-0.39
747	3
748	-1.1
749	0.03
750	-5.35
751	-16.39
752	-13.38
753	-1.14
754	1.12
755	-1.69
756	2.2
757	-1.05
758	-3.3
759	-8.93
760	11.46
761	-4.41
762	-0.85
763	31.78
764	2.47
765	-1.56
766	3.41
767	-2.82
768	1.64
769	-2.92
770	5.14
771	-0.01
772	0.81
773	2.85
774	-1.8
775	1.36
776	0.45
777	3.36
778	18.94
779	-2.73
780	2.91
781	1.93
782	-2.22
783	-3.11
784	-4.97
785	-0.89
786	0.58
787	-6.49
788	10.18
789	-3.92
790	0.65
791	2.19
792	16.45
793	0.06
794	-8.64
795	-0.27
796	-1.96
797	15.34
798	5.79
799	7.46
800	3.21
801	0.37
802	17.2
803	1.21
804	4.16
805	0.68
806	-5.71
807	1.14
808	2.34
809	-5.46
810	-8.74
811	-1.39
812	0.14
813	-4.68
814	-3.52
815	3.02
816	4.85
817	4.44
818	-7.5
819	-2.98
820	-6.75
821	0.69
822	0.22
823	-3.91
824	2.16
825	-6.53
826	2.72
827	3.12
828	-0.78
829	-4.93
830	-3.85
831	1.9
832	-4.44
833	-7.11
834	-0.05
835	-8.69
836	-4.01
837	3.02
838	2.63
839	11.17
840	-2.58
841	-1.35
842	-4.85
843	-8.23
844	-4.42
845	1.76
846	16.09
847	-7.23
848	11.67
849	2.27
850	-12.04
851	0.9
852	-0.86
853	2.18
854	4.85
855	-2.31
856	0.76
857	-4.89
858	2.91
859	-4.99
860	-4.46
861	8.11
862	2.64
863	-3.7
864	-2.61
865	-4.94
866	2.79
867	1.91
868	-2.07
869	2.89
870	-4.23
871	0.96
872	-4.13
873	2.53
874	-0.01
875	-0.25
876	-0.64
877	-5.74
878	4.83
879	-2.58
880	5.39
881	4.01
882	-1.89
883	0.51
884	3.06
885	-4.77
886	-1.05
887	-5.15
888	-6.41
889	-0.53
890	19.42
891	-0.17
892	0.43
893	-3.96
894	-1.31
895	-2.68
896	-2.39
897	0.11
898	2.63
899	-0.98
900	13.72
901	-6.18
902	3.86
903	4.34
904	2.88
905	6.9
906	-1.37
907	3.7
908	-0.1
909	3.93
910	-3.7
911	5.21
912	6.3
913	-4.48
914	-2.24
915	-3.72
916	0.8
917	-7.85
918	2.42
919	0.55
920	-3.63
921	-1.87
922	1.49
923	4.62
924	-6.83
925	3.3
926	-0.88
927	-0.75
928	-0.11
929	-2.18
930	5.63
931	28.58
932	6.64
933	-5.66
934	1.23
935	-1.63
936	7.92
937	1.3
938	-0.12
939	6.95
940	0.4
941	-6.85
942	-0.64
943	-2.96
944	3.27
945	-2.26
946	0.32
947	3.77
948	0.3
949	2.42
950	-5.92
951	-0.37
952	7.86
953	0.97
954	-2.33
955	-0.43
956	2.39
957	1.49
958	30.04
959	-8
960	-6.02
961	0.8
962	3.85
963	-3.5
964	3.01
965	1.35
966	0.37
967	2.08
968	4.37
969	2.04
970	-1.66
971	2.06
972	-7.57
973	7.94
974	-2.47
975	-6.75
976	4.68
977	-5.37
978	-0.75
979	1.46
980	-0.6
981	-8.78
982	-0.64
983	3.5
984	5.78
985	10.73
986	-19.87
987	-0.89
988	5.15
989	-1.31
990	4.2
991	-3.89
992	3.06
993	5.31
994	-4.69
995	0.32
996	-0.72
997	1.2
998	3.84
999	7.57
1000	2.18
