Data from Helium1000V905mT_500ms_USB2G486391__2__00091.txt Node

Date: Thu Oct 21 15:08:48 EDT 2021
User: phys191
Spectrometer: USB2G48639
Scans to average: 1
Trigger mode: 4
Integration Time (sec): 5.000000E-1
Electric dark correction enabled: true
Boxcar width: 0
XAxis mode: Wavelengths
Number of Pixels in Spectrum: 651
>>>>>Begin Spectral Data<<<<<
350	1.69
351	-1.78
352	3.81
353	-5.41
354	1.69
355	8.16
356	10.73
357	21.47
358	-0.75
359	2.61
360	-1.12
361	-0.3
362	0.36
363	6.11
364	5.88
365	-2.83
366	4.55
367	2.56
368	13.05
369	9.31
370	4.75
371	21.86
372	10.26
373	9.4
374	4.42
375	6.88
376	7.98
377	2.42
378	3.94
379	-6.42
380	1.55
381	9.37
382	7.51
383	16.3
384	7.74
385	6.77
386	13.06
387	5.6
388	14.07
389	181.64
390	436.28
391	17.38
392	27.36
393	8.21
394	8.24
395	5.19
396	6.5
397	41.9
398	36.45
399	3.19
400	-1.65
401	20.18
402	2.61
403	63.11
404	178.55
405	8.62
406	2.92
407	5.26
408	6.17
409	2.21
410	-0.08
411	11
412	10.99
413	30.2
414	0.88
415	14.33
416	6.15
417	9.12
418	7.97
419	4.09
420	3.89
421	6.87
422	3.46
423	1.99
424	11
425	17.36
426	4.47
427	27.1
428	23.71
429	15.39
430	0.08
431	5.11
432	0.48
433	5.24
434	11.14
435	43.75
436	11.48
437	5.7
438	1.4
439	27.44
440	52.28
441	12.43
442	13.05
443	8.28
444	13.23
445	19.06
446	8.28
447	130.42
448	922.63
449	206.11
450	8.92
451	6.64
452	9.42
453	3.19
454	11.69
455	17.72
456	10.97
457	21.13
458	2.88
459	3.93
460	8.56
461	4.54
462	3.35
463	1.07
464	5.28
465	26.26
466	14.87
467	3.57
468	4
469	5.49
470	10.24
471	13.7
472	193.14
473	83.44
474	0.03
475	3.34
476	5.75
477	5.09
478	2.13
479	-3.75
480	9.87
481	3.23
482	2.75
483	8.62
484	9.51
485	11.8
486	17.31
487	142.06
488	51.85
489	15.75
490	9.36
491	18.28
492	87.41
493	577.69
494	210.89
495	31.21
496	23.43
497	44.3
498	16.6
499	15.43
500	13.35
501	40.09
502	2312.09
503	1928.23
504	299.56
505	99.94
506	131.48
507	31.55
508	14.22
509	9.29
510	0.99
511	1.29
512	1.34
513	3.08
514	5.91
515	5.01
516	4.8
517	4.39
518	5.36
519	4.57
520	14.05
521	0.87
522	3.28
523	10.91
524	5.94
525	13.95
526	10.23
527	12.07
528	3.54
529	4.92
530	5.41
531	-1.77
532	8.6
533	5.41
534	3.3
535	4.68
536	10.68
537	6.5
538	5.28
539	4.59
540	8.65
541	1.46
542	3.56
543	1.76
544	6.15
545	1.29
546	2.48
547	-1.22
548	4.44
549	-3.38
550	-1.56
551	0.98
552	6.12
553	4.75
554	1.6
555	8.52
556	3.95
557	8.45
558	8.07
559	7.06
560	13.32
561	6.36
562	1.72
563	7.28
564	7.32
565	-3.83
566	4.42
567	7.56
568	0.55
569	6.18
570	3.35
571	8.01
572	-0.59
573	3.85
574	8.69
575	38.02
576	26.5
577	14.33
578	7.64
579	11.29
580	3.87
581	8.28
582	25.17
583	13.05
584	12.09
585	7.06
586	15.62
587	23.45
588	1515.59
589	1250.8
590	323
591	29.26
592	23.59
593	11.19
594	3.3
595	4.7
596	4.44
597	10.93
598	12.07
599	5.24
600	5.18
601	1.08
602	14.45
603	8.79
604	3.7
605	4.71
606	2.89
607	7.45
608	10.05
609	-2.18
610	2.21
611	3.94
612	8.06
613	5.25
614	10.43
615	-0.75
616	4.53
617	9.88
618	5.33
619	2.73
620	5.87
621	8.91
622	5.26
623	4.7
624	-1.45
625	2.13
626	6.55
627	-1.26
628	3.59
629	0.54
630	13.55
631	-0.8
632	3.58
633	5.63
634	0.17
635	-1.12
636	-5.04
637	-3.95
638	5.29
639	9.35
640	-1.01
641	0.96
642	31.15
643	4.29
644	7.04
645	5.36
646	12.19
647	10.15
648	5.32
649	1.7
650	5.03
651	10.14
652	14.64
653	30.87
654	16.47
655	10.73
656	13.52
657	144.22
658	74.75
659	30.79
660	15.12
661	23.29
662	11.88
663	20.9
664	15.38
665	15.24
666	14.95
667	10.92
668	1300.23
669	2422.32
670	710.66
671	151.44
672	20.5
673	10.78
674	12.68
675	11.13
676	2.67
677	10.57
678	8.04
679	3.65
680	7.88
681	7.99
682	5.6
683	2.01
684	39.46
685	-0.53
686	9.34
687	7.3
688	3.22
689	19.9
690	9.25
691	4.01
692	1.48
693	-2.33
694	-1.89
695	4.08
696	18.12
697	4.86
698	14.9
699	7.84
700	10.23
701	5.41
702	10.52
703	3.13
704	3.01
705	3.64
706	10.2
707	807.96
708	611.75
709	190.13
710	27.25
711	8.69
712	-1.25
713	8.33
714	8.31
715	7.37
716	2.79
717	1.21
718	7.42
719	0.92
720	0.24
721	2.24
722	7.53
723	-2.87
724	-4.53
725	22.47
726	13.78
727	7.51
728	78.54
729	472.35
730	210.35
731	40.67
732	4.02
733	2.81
734	1.43
735	10.48
736	1.35
737	0.11
738	0.85
739	0.91
740	6.9
741	0.33
742	7.33
743	26.26
744	6.25
745	5.1
746	3.23
747	8.78
748	3.81
749	1.15
750	-3.55
751	-16.32
752	0.16
753	4.58
754	0.65
755	-1.76
756	-1.02
757	5.21
758	2.48
759	-1.61
760	6.38
761	2.77
762	3.41
763	39.4
764	-1.09
765	-4.5
766	-4.48
767	1.24
768	-3.65
769	-4.35
770	-0.9
771	3.19
772	2.63
773	6.95
774	2.85
775	2.98
776	0.55
777	3.29
778	25.27
779	8.63
780	8.03
781	3.09
782	6.21
783	-0.36
784	7.06
785	0.51
786	-1.37
787	6.28
788	19.35
789	-2.87
790	0.77
791	3.86
792	5.58
793	11.47
794	-11.05
795	3.13
796	1.34
797	27.97
798	-6.41
799	4
800	4.61
801	-3.59
802	19.88
803	3.63
804	-3.95
805	1.74
806	-2.61
807	-1.87
808	4.96
809	-0.23
810	-6.42
811	5.18
812	1.3
813	-1.61
814	0.71
815	-7.68
816	3.19
817	6.55
818	-7.33
819	1.79
820	-0.63
821	0.46
822	-3.56
823	2.78
824	1.87
825	-5.97
826	5.27
827	8.91
828	0.18
829	1.3
830	-3.75
831	2.12
832	0.16
833	-0.96
834	9.75
835	-2.85
836	7.27
837	0.56
838	-2.87
839	6.27
840	0.12
841	-4.18
842	-2.53
843	3.53
844	-7.92
845	8.55
846	14.77
847	3.28
848	6.46
849	2.01
850	-5.86
851	-2.39
852	-6.05
853	-4.7
854	6.49
855	2.96
856	-2.88
857	-1.02
858	-2.99
859	1.42
860	2.68
861	1.73
862	6.5
863	0.54
864	0.49
865	-1.23
866	-1.72
867	0.11
868	2.98
869	1.03
870	0.51
871	-3.92
872	4.14
873	2.98
874	-0.32
875	2.44
876	-1.48
877	2.35
878	6.14
879	3.54
880	1.94
881	-4.91
882	-1.66
883	1.04
884	-1.12
885	1.12
886	0.27
887	1.89
888	-2.43
889	2.8
890	20.87
891	2.52
892	2.08
893	3.51
894	-1.79
895	-0.2
896	4.48
897	1.32
898	3.61
899	-5.85
900	18.85
901	-4.7
902	5.58
903	6.14
904	7.01
905	9.69
906	-7
907	2.66
908	-2.06
909	-0.79
910	-3.13
911	6.06
912	2.52
913	-2.94
914	1.36
915	-2.34
916	-4.71
917	-1.23
918	-0.18
919	3.93
920	-0.28
921	0.4
922	0.74
923	-2.3
924	-5.79
925	-1.96
926	2.8
927	5.14
928	-5.74
929	3.08
930	-3
931	34.99
932	2.27
933	-2.68
934	1.36
935	-0.44
936	12.41
937	-2.77
938	-9.79
939	5.18
940	-0.61
941	-5.67
942	-3.51
943	-0.64
944	2.32
945	-0.16
946	2.01
947	-4.11
948	-0.61
949	6.76
950	-0.68
951	1.3
952	6.8
953	1.79
954	-5.33
955	4.74
956	5.17
957	-8.67
958	22.99
959	-2.44
960	3.2
961	-3.86
962	-0.62
963	4.24
964	1.68
965	1.96
966	2.48
967	1.45
968	-2.56
969	5.4
970	2.05
971	1.15
972	0.69
973	9.16
974	-1.23
975	0.61
976	8.73
977	2.66
978	2.29
979	0.47
980	-0.16
981	2.03
982	2.23
983	6.17
984	-0.52
985	0.67
986	0.96
987	1.14
988	2.16
989	-7.61
990	-6.62
991	-4.9
992	0.39
993	-1.24
994	-4.05
995	6.66
996	1.13
997	2.72
998	-1.45
999	1.29
1000	1.1
