Data from Helium1000V617mT_500ms_USB2G486391__2__00086.txt Node

Date: Thu Oct 21 15:00:37 EDT 2021
User: phys191
Spectrometer: USB2G48639
Scans to average: 1
Trigger mode: 4
Integration Time (sec): 5.000000E-1
Electric dark correction enabled: true
Boxcar width: 0
XAxis mode: Wavelengths
Number of Pixels in Spectrum: 651
>>>>>Begin Spectral Data<<<<<
350	5.22
351	-1.1
352	0.08
353	-2.73
354	-1.47
355	8.03
356	7.84
357	16.72
358	-2.41
359	1.1
360	1
361	-3.88
362	1.45
363	-0.19
364	-3.71
365	2.13
366	-2.61
367	-1.08
368	13.93
369	16.32
370	5.01
371	24.33
372	11.69
373	6.44
374	2.77
375	4.07
376	-3.05
377	0.04
378	-4.37
379	-1.15
380	-4.7
381	9.07
382	3.81
383	11.93
384	4.98
385	-3.28
386	10.75
387	0.55
388	6.96
389	137.43
390	315.39
391	10.93
392	15.32
393	7.7
394	0.82
395	-0.97
396	-0.17
397	32.58
398	37.27
399	-8.49
400	-0.29
401	14.56
402	3.09
403	62.02
404	166.34
405	8.52
406	-2.38
407	2.86
408	0.25
409	1.78
410	-1.08
411	6.92
412	5.13
413	29.34
414	0.02
415	8.35
416	-0.91
417	-10.36
418	2.46
419	1.57
420	3.73
421	5.89
422	-4.02
423	-1.91
424	-1.38
425	0.94
426	3.52
427	19.91
428	8.79
429	6.43
430	-0.03
431	4.6
432	-1.71
433	-1.8
434	8.13
435	31.88
436	7.48
437	0.75
438	2.19
439	24.04
440	38.19
441	12.56
442	7.04
443	1.53
444	14.15
445	17.2
446	3.21
447	95.03
448	638.03
449	146
450	4.75
451	6.62
452	-0.51
453	0.56
454	8.63
455	10.38
456	6.53
457	11.61
458	0.41
459	-6.79
460	-5.46
461	0.96
462	-5.99
463	-1.08
464	2.6
465	18.55
466	9.86
467	2.36
468	2.12
469	2.2
470	5.13
471	0.6
472	107.76
473	42.55
474	0.26
475	0.48
476	3.83
477	0.62
478	-5.57
479	-0.88
480	3.73
481	-0.12
482	1.32
483	4.16
484	1.82
485	-0.99
486	4.91
487	78.72
488	31.52
489	9.57
490	5.27
491	10.14
492	57.38
493	548.28
494	150.83
495	17.63
496	24.76
497	37.28
498	7.11
499	13.59
500	7.28
501	33.8
502	1731.07
503	1413.18
504	220.71
505	69.1
506	77.39
507	18.06
508	12.19
509	1.65
510	1.8
511	-2.35
512	3.85
513	-3.68
514	1.87
515	-1.11
516	-2.8
517	-0.51
518	0.5
519	1.36
520	8.52
521	-0.48
522	0.31
523	-2.25
524	-2.4
525	0.11
526	6.61
527	7.45
528	6.85
529	1.01
530	0.31
531	-2.7
532	2.71
533	-1.06
534	-3.46
535	-7.17
536	4.12
537	-3.23
538	2.3
539	-2.88
540	2.35
541	-4.68
542	-2.73
543	-5.82
544	5.09
545	-5.77
546	-4.15
547	-3.89
548	-3.33
549	-4.17
550	-0.46
551	6.57
552	-2.42
553	1.76
554	-0.59
555	2.35
556	-2.49
557	3.91
558	-2.65
559	0.01
560	5.17
561	-1.54
562	2.11
563	-0.01
564	7.37
565	-0.94
566	-6.28
567	2.59
568	-4.58
569	-1.85
570	-1.3
571	0.29
572	-7.94
573	0.29
574	7.75
575	34.22
576	23.34
577	3.67
578	-3.96
579	5.77
580	7.44
581	7.28
582	21.33
583	8.91
584	5.81
585	0.05
586	-3.44
587	10.93
588	830.23
589	662.6
590	182.53
591	21.08
592	22.92
593	6.52
594	5.31
595	4.85
596	1.96
597	4.28
598	10.6
599	6.54
600	-1.01
601	-0.03
602	7.2
603	-0.17
604	-3.2
605	-1.32
606	-0.02
607	2.29
608	5.39
609	-0.3
610	5.32
611	-2.97
612	2.67
613	3.02
614	11.58
615	-2.79
616	3.5
617	3.8
618	-1.71
619	2.14
620	0.43
621	-2.81
622	3.13
623	-8.18
624	3.38
625	-1.57
626	1.96
627	-2.01
628	5.98
629	4.74
630	15.6
631	0.07
632	2.86
633	-3.11
634	4.17
635	-5.84
636	-1.15
637	4.2
638	1.03
639	10.53
640	-0.81
641	-2.8
642	29.71
643	-3.21
644	6.4
645	5.61
646	1.46
647	7.19
648	-7.66
649	-5.14
650	0.47
651	2.82
652	9.85
653	18.38
654	4.34
655	-2.17
656	0.74
657	88.24
658	50.57
659	18.79
660	4.58
661	11.67
662	1.35
663	15.94
664	5.67
665	6.21
666	7.66
667	11.17
668	750.5
669	1394.78
670	436.29
671	93.81
672	9.47
673	3.64
674	2.23
675	4.72
676	-6.38
677	0.91
678	-6.11
679	-4.52
680	-1.96
681	-0.29
682	3.44
683	-6.3
684	31.57
685	1.52
686	2.94
687	-7.69
688	1.27
689	9.85
690	7.3
691	-0.15
692	-0.26
693	-5.34
694	6.75
695	1.44
696	15.57
697	-2.98
698	7.34
699	-2.08
700	4.43
701	0.9
702	-5.77
703	-8.68
704	-6.52
705	2.26
706	4.62
707	371.58
708	286.68
709	103.43
710	11.35
711	4.14
712	-3.24
713	-0.54
714	3.32
715	7.31
716	1.76
717	-3.79
718	-5.22
719	0.08
720	0.49
721	-1.36
722	-5
723	4.09
724	-0.91
725	21.96
726	1.37
727	3.09
728	41.95
729	271.76
730	128.13
731	21
732	-1.58
733	-1.4
734	-6.66
735	4.65
736	-10.56
737	-0.1
738	-2.25
739	-10.36
740	-4.5
741	1.52
742	1.38
743	31.3
744	-4.82
745	5.2
746	1.41
747	-4.08
748	-6.39
749	3.66
750	-9.17
751	-20.44
752	-2.8
753	2.75
754	-2.97
755	-8.75
756	-4.26
757	-1.7
758	1.98
759	-3.14
760	4.37
761	-7.55
762	0.27
763	28.98
764	-5.27
765	-0.76
766	-6.86
767	0.11
768	-4.45
769	-6.87
770	-2.57
771	-4
772	-6.32
773	-0.02
774	-0.98
775	0.54
776	1.45
777	2.4
778	20.81
779	4.79
780	1.23
781	-7.09
782	-0.59
783	-3.85
784	4.31
785	-0.51
786	-5.13
787	0.34
788	18.71
789	2.05
790	3.27
791	1.07
792	6.06
793	12.88
794	-10.21
795	2.43
796	0.37
797	17.93
798	-11.59
799	1.76
800	5.66
801	-4.92
802	15.68
803	5.21
804	6.71
805	-1.28
806	-7.49
807	-2.82
808	0.01
809	-7.32
810	-0.16
811	-3.62
812	-1.93
813	-1.94
814	3.51
815	0.43
816	6.66
817	-1.75
818	-8.01
819	-2.39
820	-0.24
821	-4.24
822	2.37
823	-0.92
824	2.86
825	-5.29
826	-0.26
827	7.07
828	-5.16
829	-0.69
830	-2.11
831	-2.57
832	0.42
833	-11.84
834	-6.87
835	-0.71
836	-5.1
837	-1.93
838	-4.92
839	13.4
840	-3.05
841	-1.56
842	-2.81
843	0.39
844	1.35
845	3.68
846	18.86
847	-2.68
848	4.48
849	2.7
850	-10.45
851	-11.63
852	-3.95
853	0.33
854	7.67
855	-5
856	-6.11
857	-3.25
858	-8.86
859	-9.96
860	-1.96
861	0.7
862	0.89
863	-7.4
864	-3.75
865	-2.76
866	1.46
867	-5.95
868	-3.76
869	-3.52
870	1.2
871	-1.53
872	1.99
873	-10.69
874	-0.87
875	-0.66
876	-6.33
877	-2.44
878	3.24
879	-6.29
880	4.46
881	5.37
882	-5.39
883	0.66
884	1.92
885	-8.33
886	-3.65
887	-2.04
888	-1.93
889	-2.16
890	20.29
891	1.37
892	2.59
893	-1.87
894	-3.13
895	-2.97
896	-4.12
897	-3.7
898	-2.5
899	3
900	15.06
901	-3.17
902	2.29
903	4.34
904	-9.94
905	2.17
906	-0.3
907	0.61
908	0.55
909	2.34
910	-5.08
911	-5.63
912	-1.34
913	-6.55
914	0.52
915	1.3
916	-3.15
917	0.21
918	-9.28
919	-2.75
920	-6.45
921	-3.64
922	-3.77
923	-4.85
924	-11.05
925	-0.28
926	-0.87
927	-0.65
928	-4.88
929	-3.93
930	0.43
931	15.64
932	-3.8
933	-8.07
934	-5.45
935	-6.62
936	2.97
937	-3.18
938	-8.07
939	5.18
940	-7.72
941	-9.14
942	1.13
943	-3.48
944	0.5
945	-6.03
946	11.07
947	1.07
948	-4.8
949	5.39
950	-3.75
951	-6.27
952	-8.9
953	-3.03
954	-6.64
955	1.84
956	0.27
957	-1.65
958	23.58
959	-7.57
960	-9.48
961	-6.17
962	-1.98
963	-0.74
964	2
965	-3.82
966	-7.97
967	-6.82
968	-1.99
969	-2.33
970	-1.19
971	-13.68
972	-2.75
973	5.14
974	-6.83
975	-3.89
976	7.27
977	3.65
978	-5.82
979	-6.89
980	-2.28
981	-10.18
982	1.76
983	4.75
984	-2.58
985	4.13
986	-1.83
987	-6.86
988	-6.79
989	-3.5
990	-2.2
991	-4.15
992	-3.66
993	1.32
994	-1.14
995	-3.15
996	8.18
997	-2.03
998	-7.82
999	3.12
1000	4.09
