Data from Helium1000V173mT_500ms_USB2G486391__13__00068.txt Node

Date: Thu Oct 21 14:13:28 EDT 2021
User: phys191
Spectrometer: USB2G48639
Scans to average: 1
Trigger mode: 4
Integration Time (sec): 5.000000E-1
Electric dark correction enabled: true
Boxcar width: 0
XAxis mode: Wavelengths
Number of Pixels in Spectrum: 651
>>>>>Begin Spectral Data<<<<<
350	6.25
351	-1.29
352	-1.19
353	-1.64
354	-2.13
355	4.63
356	12.35
357	20.79
358	-4.9
359	5.26
360	8.27
361	8.88
362	11.42
363	1.81
364	-2.31
365	4.12
366	-1.04
367	0.15
368	14.93
369	10.9
370	3.77
371	29.67
372	6.53
373	14.34
374	3.84
375	6.96
376	3.42
377	8.56
378	-7.16
379	-0.69
380	-5.09
381	4.64
382	10.17
383	11.66
384	0.02
385	7.07
386	9.51
387	8.01
388	9.8
389	126.54
390	266.31
391	13.16
392	19.68
393	4.78
394	2.74
395	-1.06
396	7.54
397	73
398	42.34
399	1.83
400	-2.73
401	17.03
402	4.36
403	70.99
404	163.9
405	8.11
406	2.34
407	4.06
408	-0.41
409	-1.43
410	3.2
411	8.52
412	12.26
413	44.19
414	7.22
415	13.45
416	5.84
417	4.94
418	6.08
419	-3.89
420	-0.49
421	4.03
422	2.27
423	1.24
424	4.64
425	6.8
426	-1.85
427	17.12
428	8.82
429	13.16
430	-5.1
431	3.39
432	-7.18
433	4.19
434	8.85
435	21.32
436	9.86
437	-2.55
438	5.17
439	34.96
440	55.48
441	15.5
442	5.23
443	7.37
444	13.79
445	19.28
446	-7.06
447	78.79
448	495.11
449	100.16
450	9.32
451	3.76
452	-2.5
453	5.28
454	9.53
455	7.69
456	3.01
457	12.31
458	7.2
459	2.38
460	8.43
461	1.63
462	-2.06
463	-2
464	4.85
465	29.38
466	10.21
467	0.92
468	7.51
469	-2.27
470	3.65
471	13.31
472	122.95
473	37.31
474	11.94
475	7.09
476	4.81
477	5.46
478	-1.22
479	9.61
480	8.27
481	7.02
482	-2.47
483	4.95
484	5.06
485	5.25
486	14.55
487	76.78
488	27.68
489	4.79
490	3.11
491	6.65
492	71.58
493	598.52
494	158.27
495	26.26
496	11.37
497	40.86
498	11.85
499	13.85
500	13.85
501	31.98
502	1818.81
503	1339.29
504	209.17
505	81.09
506	89.53
507	23.52
508	10.4
509	11.65
510	-0.26
511	2.45
512	-0.49
513	-1
514	6.1
515	0.45
516	4.97
517	-9.3
518	0.23
519	-3.91
520	8.14
521	2.66
522	9
523	0.89
524	3.05
525	11.34
526	5.2
527	10.56
528	0.78
529	1.04
530	1.16
531	0.79
532	16.43
533	0.8
534	1.65
535	1.6
536	2.85
537	14.35
538	-0
539	11.62
540	4.1
541	0.61
542	10.89
543	1.07
544	5.69
545	-2.15
546	0.05
547	1.3
548	1.68
549	0.42
550	6.2
551	5.44
552	-5.13
553	-0.2
554	2.02
555	8.08
556	3.51
557	4.32
558	1.66
559	-4.79
560	6.79
561	0.92
562	1.5
563	5.73
564	4.15
565	-5.35
566	-6.06
567	6.71
568	-3.28
569	1.55
570	-6.7
571	-1.67
572	-2.7
573	0.82
574	7.38
575	31.48
576	16.79
577	3.16
578	1.4
579	0.53
580	5.04
581	5.27
582	14.9
583	6.61
584	4.8
585	-4.01
586	-2.44
587	11.31
588	592.08
589	439.53
590	115.06
591	11.97
592	13.68
593	5.46
594	3.89
595	0.85
596	0.67
597	0.56
598	8.8
599	-5.36
600	-0.63
601	9.08
602	9.54
603	-1.5
604	-0.84
605	7.93
606	-0.47
607	10.77
608	2.17
609	7.64
610	2.88
611	-1.25
612	2.86
613	2.87
614	11.03
615	6.33
616	-3.97
617	8.26
618	4.48
619	-0.82
620	3.72
621	-4.47
622	1.75
623	1.69
624	-0.31
625	2.35
626	4.18
627	3.25
628	3.27
629	6.84
630	17.11
631	-4.06
632	-0.05
633	-0.99
634	-4.54
635	-1.01
636	-2.07
637	-1.59
638	-3.54
639	17.42
640	-0.3
641	8.96
642	25
643	3.74
644	6.01
645	0.24
646	1.14
647	5.16
648	3.89
649	-1
650	8.5
651	2.67
652	8.69
653	23.76
654	3.78
655	7.5
656	9.79
657	110.23
658	61.39
659	17.48
660	5.71
661	13.55
662	6.38
663	9.61
664	-0.33
665	3.61
666	10.12
667	10
668	484.89
669	818.03
670	250.43
671	67.66
672	8.28
673	7.74
674	5
675	10.7
676	2.46
677	8.1
678	3.67
679	0.17
680	3.64
681	5.47
682	0.68
683	5.62
684	33.51
685	2.53
686	2.38
687	-2.12
688	-2.88
689	15.53
690	3.79
691	8.63
692	-2
693	-13.04
694	-0.79
695	4.59
696	22.57
697	3.03
698	3.67
699	-1.25
700	5.8
701	5.13
702	5.65
703	6.61
704	0.79
705	0.42
706	5.25
707	222.44
708	158.62
709	48.65
710	4.8
711	2.82
712	-3.06
713	4.95
714	1.92
715	1.85
716	-2.69
717	-1.05
718	1.89
719	-4.71
720	-0.88
721	0.99
722	-0.7
723	0.65
724	-5.12
725	27.35
726	0.39
727	6.15
728	30.53
729	177.47
730	63.87
731	13.58
732	-2.72
733	4.95
734	-1.63
735	2.67
736	0.75
737	1.5
738	10
739	-0.4
740	6.82
741	6.95
742	4.87
743	18.85
744	7.84
745	13.8
746	2.67
747	0.87
748	4.79
749	0.36
750	-2.65
751	-12.1
752	1.54
753	3.65
754	0.31
755	4.43
756	-0.03
757	5
758	-0.63
759	1.7
760	10.09
761	9.97
762	0.83
763	29.34
764	9.11
765	-2.63
766	0.7
767	-5.09
768	-1.06
769	0.72
770	0.97
771	5.96
772	1.04
773	4.12
774	-1.03
775	0.22
776	-0.47
777	-2.52
778	17.97
779	4.29
780	3.67
781	5.41
782	3.62
783	1.6
784	-1.26
785	3.88
786	-0.43
787	0.65
788	11.71
789	-1.52
790	9.35
791	3.61
792	6.27
793	10.47
794	4.96
795	2.62
796	0.92
797	21.4
798	3.99
799	3.78
800	3.06
801	0.12
802	18.52
803	1.35
804	3.66
805	10.03
806	0.14
807	2.45
808	3.06
809	-3.68
810	-2.56
811	0.78
812	-1.66
813	-0.11
814	1.35
815	-2.44
816	1.41
817	1.44
818	-1.12
819	4.55
820	0.79
821	-2.64
822	2.05
823	4.84
824	0.16
825	-1.23
826	-0.61
827	6.1
828	2.58
829	-4.11
830	0.27
831	1.05
832	4.11
833	0.73
834	2.51
835	2.01
836	1.28
837	6.41
838	4.14
839	15.73
840	1.71
841	-2.13
842	-0.33
843	0.02
844	6.94
845	12.52
846	22.34
847	-1.64
848	1.31
849	-2.38
850	-2.91
851	-11.81
852	-3.93
853	-5.15
854	9.61
855	-1.91
856	-3.66
857	8.2
858	-2.21
859	-3.09
860	1.45
861	5.39
862	-0.49
863	4.97
864	6.59
865	-9.25
866	1.35
867	-1.13
868	-1.12
869	-1.88
870	-4.39
871	1.67
872	-0.28
873	-4.19
874	-1.84
875	-4.34
876	-0.96
877	-2.97
878	1.14
879	-4.15
880	-6.19
881	-3.08
882	-4.61
883	-4.36
884	-1.86
885	-6.61
886	-1.99
887	-3.89
888	-4.8
889	-2.29
890	21.81
891	-3.97
892	0.54
893	-6.04
894	-1.42
895	-3.37
896	-7.59
897	-2.16
898	-2.48
899	2.61
900	10.39
901	-1.58
902	3.03
903	3.03
904	2.26
905	3.17
906	-4.67
907	8.18
908	0.46
909	-11.61
910	0.85
911	5.54
912	-0.02
913	-7.55
914	2.63
915	4.85
916	-3.84
917	6.47
918	0.05
919	0.81
920	-2.79
921	-1.09
922	0.63
923	2.66
924	-6.08
925	4.39
926	-4.14
927	-7.93
928	-4.91
929	-5.11
930	2.72
931	32.04
932	-1.32
933	-3.4
934	0.89
935	-0.79
936	11.71
937	-0.32
938	-4.04
939	5.81
940	1.96
941	3.49
942	3.06
943	-1.69
944	-0.32
945	-4.08
946	3.35
947	1.58
948	1.89
949	1.59
950	-2.06
951	-4.55
952	1.36
953	1.31
954	-2.28
955	1.81
956	-1.06
957	-7.88
958	30.37
959	1.79
960	-2.74
961	-9.23
962	-0.82
963	5.59
964	2.04
965	-6.3
966	-3.3
967	-6.21
968	2.05
969	-3.27
970	3.52
971	3.12
972	-3.86
973	8.67
974	0.91
975	-4.52
976	2.28
977	-3.24
978	0.18
979	-0.99
980	0.69
981	-0.23
982	3.44
983	5.56
984	4.93
985	2.99
986	2.83
987	-3.98
988	4.46
989	1.24
990	2.4
991	-6.45
992	4.57
993	5.63
994	0.57
995	6.04
996	8.95
997	6.48
998	-4.39
999	8.28
1000	7.02
