probe voltage (V), probe current (A), resistance (9.9e37 if not enabled) , timestamp , status word ,
-5.800000E+01,-1.167545E-07,+9.910000E+37,+9.499883E+03,+2.150800E+04,
-5.790000E+01,-7.331677E-08,+9.910000E+37,+9.500943E+03,+2.150800E+04,
-5.780000E+01,-5.159797E-08,+9.910000E+37,+9.502004E+03,+2.150800E+04,
-5.770000E+01,-5.715394E-08,+9.910000E+37,+9.503063E+03,+2.150800E+04,
-5.760000E+01,-4.553688E-08,+9.910000E+37,+9.504121E+03,+2.150800E+04,
-5.750000E+01,-4.301144E-08,+9.910000E+37,+9.505180E+03,+2.150800E+04,
-5.740000E+01,-3.846564E-08,+9.910000E+37,+9.506242E+03,+2.150800E+04,
-5.730000E+01,-3.695036E-08,+9.910000E+37,+9.507318E+03,+2.150800E+04,
-5.720000E+01,-3.998087E-08,+9.910000E+37,+9.508378E+03,+2.150800E+04,
-5.710000E+01,-3.391984E-08,+9.910000E+37,+9.509438E+03,+2.150800E+04,
-5.700000E+01,-3.594018E-08,+9.910000E+37,+9.510498E+03,+2.150800E+04,
-5.690000E+01,-3.189948E-08,+9.910000E+37,+9.511556E+03,+2.150800E+04,
-5.680000E+01,-2.836386E-08,+9.910000E+37,+9.512616E+03,+2.150800E+04,
-5.670000E+01,-2.533331E-08,+9.910000E+37,+9.513675E+03,+2.150800E+04,
-5.660000E+01,-2.785878E-08,+9.910000E+37,+9.514735E+03,+2.150800E+04,
-5.650000E+01,-2.533331E-08,+9.910000E+37,+9.515794E+03,+2.150800E+04,
-5.640000E+01,-1.826208E-08,+9.910000E+37,+9.516855E+03,+2.150800E+04,
-5.630000E+01,-2.129260E-08,+9.910000E+37,+9.517942E+03,+2.150800E+04,
-5.620000E+01,-1.775699E-08,+9.910000E+37,+9.519002E+03,+2.150800E+04,
-5.610000E+01,-1.826207E-08,+9.910000E+37,+9.520060E+03,+2.150800E+04,
-5.600000E+01,-1.977733E-08,+9.910000E+37,+9.521119E+03,+2.150800E+04,
-5.590000E+01,-2.028242E-08,+9.910000E+37,+9.522178E+03,+2.150800E+04,
-5.580000E+01,-1.674681E-08,+9.910000E+37,+9.523240E+03,+2.150800E+04,
-5.570000E+01,-1.523154E-08,+9.910000E+37,+9.524299E+03,+2.150800E+04,
-5.560000E+01,-1.826206E-08,+9.910000E+37,+9.525356E+03,+2.150800E+04,
-5.550000E+01,-1.321117E-08,+9.910000E+37,+9.526413E+03,+2.150800E+04,
-5.540000E+01,-6.645013E-09,+9.910000E+37,+9.527472E+03,+2.150800E+04,
-5.530000E+01,-4.119568E-09,+9.910000E+37,+9.528531E+03,+2.150800E+04,
-5.520000E+01,-8.665370E-09,+9.910000E+37,+9.529590E+03,+2.150800E+04,
-5.510000E+01,-8.665371E-09,+9.910000E+37,+9.530649E+03,+2.150800E+04,
-5.500000E+01,-3.109391E-09,+9.910000E+37,+9.531712E+03,+2.150800E+04,
-5.490000E+01,-2.099213E-09,+9.910000E+37,+9.532771E+03,+2.150800E+04,
-5.480000E+01,-1.594123E-09,+9.910000E+37,+9.533832E+03,+2.150800E+04,
-5.470000E+01,-1.089034E-09,+9.910000E+37,+9.534895E+03,+2.150800E+04,
-5.460000E+01,+1.436361E-09,+9.910000E+37,+9.535975E+03,+2.150800E+04,
-5.450000E+01,-5.839451E-10,+9.910000E+37,+9.537033E+03,+2.150800E+04,
-5.440000E+01,-5.839452E-10,+9.910000E+37,+9.538094E+03,+2.150800E+04,
-5.430000E+01,-5.839446E-10,+9.910000E+37,+9.539155E+03,+2.150800E+04,
-5.420000E+01,+1.941399E-09,+9.910000E+37,+9.540218E+03,+2.150800E+04,
-5.410000E+01,+1.436361E-09,+9.910000E+37,+9.541280E+03,+2.150800E+04,
-5.400000E+01,+1.103208E-08,+9.910000E+37,+9.542341E+03,+2.150800E+04,
-5.390000E+01,+3.456514E-09,+9.910000E+37,+9.543402E+03,+2.150800E+04,
-5.380000E+01,+4.262333E-10,+9.910000E+37,+9.544488E+03,+2.150800E+04,
-5.370000E+01,+1.456736E-08,+9.910000E+37,+9.545546E+03,+2.150800E+04,
-5.360000E+01,+2.446437E-09,+9.910000E+37,+9.546625E+03,+2.150800E+04,
-5.350000E+01,+9.516969E-09,+9.910000E+37,+9.547686E+03,+2.150800E+04,
-5.340000E+01,+1.608247E-08,+9.910000E+37,+9.548745E+03,+2.150800E+04,
-5.330000E+01,+8.506893E-09,+9.910000E+37,+9.549806E+03,+2.150800E+04,
-5.320000E+01,+1.456736E-08,+9.910000E+37,+9.550882E+03,+2.150800E+04,
-5.310000E+01,+1.608247E-08,+9.910000E+37,+9.551959E+03,+2.150800E+04,
-5.300000E+01,+9.011933E-09,+9.910000E+37,+9.553019E+03,+2.150800E+04,
-5.290000E+01,+1.658751E-08,+9.910000E+37,+9.554080E+03,+2.150800E+04,
-5.280000E+01,+1.153712E-08,+9.910000E+37,+9.555140E+03,+2.150800E+04,
-5.270000E+01,+1.810262E-08,+9.910000E+37,+9.556197E+03,+2.150800E+04,
-5.260000E+01,+9.516972E-09,+9.910000E+37,+9.557257E+03,+2.150800E+04,
-5.250000E+01,+2.012278E-08,+9.910000E+37,+9.558315E+03,+2.150800E+04,
-5.240000E+01,+1.103208E-08,+9.910000E+37,+9.559378E+03,+2.150800E+04,
-5.230000E+01,+1.557743E-08,+9.910000E+37,+9.560437E+03,+2.150800E+04,
-5.220000E+01,+1.507239E-08,+9.91000


current through plasma (-mA) <tab> voltage across plasma (-V) <tab> time (sec)
3.758193	385.043200	0.002000
3.757563	385.178595	0.102000
3.753013	385.551650	0.202000
3.750617	385.645909	0.302000
3.751782	385.564606	0.402000
3.754572	385.332676	0.502000
3.757453	385.113293	0.602000
3.759110	384.976706	0.702000
3.756471	385.208647	0.802000
3.752217	385.536921	0.902000
3.750814	385.659735	1.002000
3.754016	385.434591	1.102000
3.758038	385.088985	1.202000
3.759004	385.003749	1.302000
3.756939	385.164013	1.402000
3.753471	385.428481	1.502000
3.751148	385.653752	1.602000
3.753500	385.484387	1.702000
3.757338	385.199802	1.802000
3.759621	385.004949	1.902000
3.757522	385.143122	2.002000
3.754570	385.348047	2.102000
3.752262	385.527017	2.202000
3.752113	385.547431	2.302000
3.755910	385.303720	2.402000
3.759437	384.977678	2.502000
3.759185	385.021747	2.602000
3.754956	385.331769	2.702000
3.751830	385.566913	2.802000
3.752771	385.533439	2.902000
3.756076	385.255351	3.002000
3.758650	385.077042	3.102000
3.759546	385.000438	3.202000
3.757191	385.180089	3.302000
3.753098	385.548987	3.402000
3.751572	385.668367	3.502000
3.755641	385.356970	3.602000
3.759428	385.077380	3.702000
3.760253	384.980825	3.802000
3.756889	385.223645	3.902000
3.754056	385.435371	4.002000
3.752248	385.592045	4.102000
3.754807	385.436373	4.202000
3.758257	385.182248	4.302000
3.760581	384.996171	4.402000
3.758073	385.176875	4.502000
3.754493	385.426703	4.602000
3.753122	385.565335	4.702000
3.754406	385.456083	4.802000
3.757675	385.181598	4.902000
3.760865	384.929461	5.002000
3.759903	385.031986	5.102000
3.754919	385.414702	5.202000
3.751845	385.674765	5.302000
3.754175	385.485524	5.402000
3.757689	385.200823	5.502000
3.759987	384.999083	5.602000
3.759069	385.049446	5.702000
3.756823	385.216837	5.802000
3.753349	385.501673	5.902000
3.752839	385.590570	6.002000
3.756259	385.325754	6.102000
3.760362	385.022889	6.202000
3.760481	384.999212	6.302000
3.756405	385.315436	6.402000
3.753324	385.506657	6.502000
3.753220	385.555678	6.602000
3.756255	385.311362	6.702000
3.759842	385.050595	6.802000
3.760960	384.939636	6.902000
3.757356	385.248321	7.002000
3.753860	385.525379	7.102000
3.752698	385.637914	7.202000
3.756040	385.354771	7.302000
3.758994	385.125463	7.402000
3.761182	384.921261	7.502000
3.759387	385.089666	7.602000
3.754909	385.421964	7.702000
3.752503	385.629244	7.802000
3.754972	385.428854	7.902000
3.759211	385.097693	8.002000
3.761267	384.897522	8.102000
3.758392	385.123296	8.202000
3.755329	385.366226	8.302000
3.753624	385.496004	8.402000
3.754111	385.463892	8.502000
3.757488	385.201084	8.602000
3.761431	384.894793	8.702000
3.760605	384.997479	8.802000
3.756138	385.345818	8.902000
3.753275	385.579384	9.002000
3.754058	385.495667	9.102000
3.757281	385.236167	9.202000
3.760311	385.003574	9.302000
3.760839	384.959678	9.402000
3.757578	385.225201	9.502000
3.753664	385.534062	9.602000
3.753753	385.528951	9.702000
3.757272	385.265612	9.802000
3.760399	385.034857	9.902000
3.760944	384.979486	10.002000
3.758719	385.099813	10.102000
3.754820	385.403384	10.202000
3.753103	385.542135	10.302000
3.755758	385.355641	10.402000
3.760688	384.968499	10.502000
3.761846	384.899606	10.602000
3.758166	385.189773	10.702000
3.754949	385.426146	10.802000
3.754151	385.474782	10.902000
3.756118	385.321937	11.002000
3.759354	385.065861	11.102000
3.761755	384.892368	11.202000
3.760424	384.999257	11.302000
3.756112	385.342844	11.402000
3.753431	385.556213	11.502000
3.755179	385.450706	11.602000
3.759608	385.064850	11.702000
3.761232	384.953294	11.802000
3.760558	384.956347	11.902000
3.756591	385.278581	12.002000
3.753423	385.537779	12.102000
3.754476	385.465950	12.202000
3.758404	385.190331	12.302000
3.761785	384.903134	12.402000
3.760443	385.007582	12.502000
3.757354	385.229884	12.602000
3.755032	385.367168	12.702000
3.755343	385.278105	12.802000
3.758372	385.033178	12.902000
3.762777	384.710342	13.002000
3.763355	384.632847	13.102000
3.759332	384.946067	13.202000
3.755475	385.279173	13.302000
3.755517	385.251216	13.402000
3.759037	384.978345	13.502000
3.761532	384.797535	13.602000
3.762989	384.632012	13.702000
3.760384	384.812044	13.802000
3.757036	385.125143	13.902000
3.755287	385.248245	14.002000
3.757528	385.127403	14.102000
3.762024	384.757361	14.202000
3.763742	384.611889	14.302000
3.761562	384.754574	14.402000
3.757702	385.072153	14.502000
3.755857	385.222096	14.602000
3.757697	385.105536	14.702000
3.761646	384.784514	14.802000
3.763800	384.649788	14.902000
3.761767	384.798054	15.002000
3.758053	385.084987	15.102000
3.756541	385.169068	15.202000
3.757705	385.076639	15.302000
3.760287	384.899736	15.402000
3.763541	384.619791	15.502000
3.763496	384.616704	15.602000
3.759270	384.981568	15.702000
3.755346	385.269949	15.802000
3.756610	385.179063	15.902000
3.761287	384.792408	16.002000
3.763632	384.600083	16.102000
3.762623	384.684970	16.202000
3.760216	384.831094	16.302000
3.756973	385.136319	16.402000
3.756293	385.171940	16.502000
3.760361	384.913537	16.602000
3.764109	384.621618	16.702000
3.763920	384.605301	16.802000
3.760298	384.883310	16.902000
3.756897	385.163242	17.002000
3.756973	385.170472	17.102000
3.760304	384.905975	17.202000
3.763854	384.644217	17.302000
3.764927	384.538178	17.402000
3.761381	384.844868	17.502000
3.757212	385.169065	17.602000
3.756932	385.231868	17.702000
3.760538	384.893697	17.802000
3.763005	384.735482	17.902000
3.764963	384.544105	18.002000
3.763202	384.672165	18.102000
3.758988	385.014235	18.202000
3.756672	385.209955	18.302000
3.758631	385.057190	18.402000
3.763806	384.655397	18.502000
3.765311	384.533652	18.602000
3.762423	384.745901	18.702000
3.758857	384.969551	18.802000
3.757757	385.089578	18.902000
3.758664	385.013719	19.002000
3.762153	384.780832	19.102000
3.764923	384.567056	19.202000
3.763542	384.648797	19.302000
3.759291	385.003675	19.402000
3.757127	385.121437	19.502000
3.758124	385.066419	19.602000
3.761736	384.802647	19.702000
3.764234	384.612630	19.802000
3.764114	384.612704	19.902000
3.760470	384.888951	20.002000
3.756730	385.203727	20.102000
3.757456	385.147450	20.203000
3.761703	384.783899	20.302000
3.764896	384.528121	20.402000
3.763817	384.594406	20.502000
3.761864	384.712639	20.602000
3.757901	385.033367	20.702000
3.756943	385.130476	20.802000
3.760036	384.914278	20.902000
3.764410	384.575898	21.002000
3.764821	384.542798	21.102000
3.761339	384.799860	21.202000
3.757272	385.136912	21.302000
3.757420	385.085963	21.402000
3.760175	384.858874	21.502000
3.763250	384.646781	21.602000
3.765008	384.521288	21.702000
3.762368	384.733011	21.802000
3.758580	385.051818	21.902000
3.757584	385.118381	22.002000
3.759949	384.968247	22.102000
3.764200	384.592924	22.202000
3.764913	384.529147	22.302000
3.762733	384.669330	22.402000
3.758871	384.984071	22.502000
3.756958	385.179286	22.602000
3.758801	385.016844	22.702000
3.763345	384.660528	22.802000
3.765572	384.468759	22.902000
3.762864	384.676712	23.002000
3.759264	384.940158	23.102000
3.758073	385.005776	23.202000
3.759231	384.960939	23.302000
3.761843	384.763649	23.402000
3.765087	384.506470	23.502000
3.765065	384.496545	23.602000
3.760757	384.852944	23.702000
3.756756	385.188525	23.802000
3.758158	385.032348	23.902000
3.761744	384.730362	24.002000
3.764840	384.516988	24.102000
3.764511	384.539183	24.202000
3.761978	384.676223	24.302000
3.758169	385.031144	24.402000
3.757335	385.119416	24.502000
3.760417	384.882800	24.602000
3.764634	384.543076	24.702000
3.765037	384.520395	24.802000
3.761994	384.735604	24.902000
3.758795	384.966736	25.002000
3.757125	385.104358	25.102000
3.759484	384.942319	25.202000
3.763518	384.619199	25.302000
3.765676	384.452578	25.402000
3.763336	384.634095	25.502000
3.758710	385.008027	25.602000
3.757726	385.038891	25.702000
3.759472	384.921610	25.802000
3.762446	384.698415	25.902000
3.765436	384.420183	26.002000
3.764360	384.543124	26.102000
3.760639	384.826871	26.202000
3.756799	385.176410	26.302000
3.758478	385.003412	26.402000
3.762610	384.695491	26.502000
3.765153	384.470406	26.602000
3.764023	384.548263	26.702000
3.761205	384.759384	26.802000
3.758595	384.972642	26.902000
3.758280	385.033557	27.002000
3.761485	384.790159	27.102000
3.765300	384.458237	27.202000
3.765174	384.500603	27.302000
3.761597	384.782798	27.402000
3.758371	385.000490	27.502000
3.758437	385.007212	27.602000
3.760776	384.818871	27.702000
3.764340	384.558269	27.802000
3.766097	384.400610	27.902000
3.762741	384.691783	28.002000
3.758340	385.040139	28.102000
3.757736	385.069338	28.202000
3.761502	384.775904	28.302000
3.764426	384.549503	28.402000
3.764575	384.494618	28.502000
3.763588	384.555767	28.603000
3.759994	384.872464	28.702000
3.757797	385.069782	28.802000
3.759401	384.951327	28.902000
3.764004	384.567170	29.002000
3.765962	384.421146	29.102000
3.763527	384.620755	29.202000
3.759297	384.915870	29.302000
3.758743	384.955493	29.402000
3.759734	384.905167	29.502000
3.762909	384.656539	29.602000
3.765246	384.495878	29.702000
3.764467	384.590517	29.802000
3.760863	384.827488	29.902000
3.758144	385.067026	30.002000
3.759512	384.941400	30.102000
3.763214	384.642604	30.202000
3.765618	384.453013	30.302000
3.765631	384.414406	30.402000
3.761752	384.736599	30.502000
3.758209	385.008138	30.602000
3.758208	385.041745	30.702000
3.762765	384.651552	30.802000
3.766230	384.373226	30.902000
3.765174	384.444170	31.002000
3.762590	384.636124	31.102000
3.759430	384.933918	31.202000
3.758495	385.018666	31.302000
3.760552	384.863092	31.402000
3.764893	384.543364	31.502000
3.766272	384.419221	31.602000
3.763000	384.689781	31.702000
3.759235	384.943489	31.802000
3.758843	384.954712	31.902000
3.761345	384.800507	32.002000
3.764481	384.551142	32.102000
3.765685	384.485057	32.202000
3.764530	384.545605	32.302000
3.760001	384.935400	32.402000
3.758425	385.057600	32.502000
3.760573	384.901390	32.602000
3.764615	384.570435	32.702000
3.765828	384.494101	32.802000
3.764545	384.515210	32.902000
3.761429	384.768172	33.002000
3.758684	384.996068	33.102000
3.759296	384.989453	33.202000
3.763871	384.607549	33.302000
3.766409	384.467332	33.402000
3.764648	384.537223	33.502000
3.760853	384.796883	33.602000
3.759199	384.938807	33.702000
3.760096	384.850729	33.802000
3.762778	384.667227	33.902000
3.764918	384.531801	34.002000
3.766332	384.394207	34.102000
3.762291	384.710448	34.202000
3.758399	385.036623	34.302000
3.759047	384.987920	34.402000
3.762928	384.666527	34.502000
3.766122	384.438009	34.602000
3.765643	384.446477	34.702000
3.762770	384.654665	34.802000
3.759492	384.894941	34.902000
3.759357	384.978367	35.002000
3.762283	384.736329	35.102000
3.765985	384.457051	35.202000
3.766115	384.421277	35.303000
3.762569	384.669721	35.402000
3.759551	384.904508	35.502000
3.759280	384.928054	35.602000
3.761555	384.790111	35.702000
3.764997	384.523061	35.802000
3.766284	384.426895	35.902000
3.763505	384.586898	36.002000
3.759078	384.979612	36.102000
3.759069	384.925769	36.202000
3.762382	384.685711	36.302000
3.765620	384.452661	36.402000
3.766309	384.385002	36.502000
3.763939	384.548634	36.602000
3.760576	384.846878	36.702000
3.758760	385.022148	36.802000
3.760694	384.888577	36.902000
3.765753	384.454837	37.002000
3.767263	384.337137	37.102000
3.764354	384.570461	37.202000
3.760942	384.800910	37.302000
3.759262	385.001040	37.402000
3.761167	384.838946	37.502000
3.764753	384.574981	37.602000
3.766604	384.427390	37.702000
3.765337	384.516840	37.802000
3.760980	384.823751	37.902000
3.759223	384.961735	38.002000
3.761020	384.818615	38.102000
3.764476	384.533296	38.202000
3.765829	384.469277	38.302000
3.765485	384.447112	38.402000
3.762307	384.685599	38.502000
3.758833	384.971140	38.602000
3.759851	384.887032	38.702000
3.764261	384.550941	38.802000
3.766873	384.357034	38.902000
3.765579	384.397034	39.002000
3.762161	384.693152	39.102000
3.760098	384.838076	39.202000
3.760374	384.842269	39.302000
3.762410	384.716046	39.402000
3.765840	384.438907	39.502000
3.766519	384.363125	39.602000
3.762655	384.697082	39.702000
3.759251	384.917324	39.802000
3.759943	384.868579	39.902000
3.763065	384.640512	40.002000
3.765644	384.432397	40.102000
3.766151	384.429488	40.202000
3.763524	384.625717	40.302000
3.760146	384.862869	40.402000
3.759502	384.919695	40.502000
3.762431	384.681599	40.602000
3.766023	384.380928	40.702000
3.765875	384.409870	40.802000
3.763877	384.521732	40.902000
3.761031	384.795165	41.002000
3.759431	384.940898	41.102000
3.761193	384.822826	41.202000
3.765171	384.507214	41.302000
3.767566	384.308377	41.402000
3.764491	384.504101	41.502000
3.760824	384.769977	41.602000
3.759535	384.899693	41.702000
3.761535	384.731853	41.802000
3.764226	384.567750	41.902000
3.766560	384.366337	42.002000
3.765825	384.411810	42.102000
3.761810	384.722684	42.202000
3.758941	384.958717	42.302000
3.760399	384.832398	42.402000
3.764414	384.500249	42.502000
3.766981	384.306750	42.602000
3.765201	384.462023	42.702000
3.762066	384.725335	42.802000
3.759516	384.922510	42.902000
3.760093	384.875625	43.002000
3.764005	384.588129	43.102000
3.767148	384.281711	43.202000
3.766056	384.392598	43.302000
3.762400	384.646055	43.402000
3.760346	384.801017	43.502000
3.760488	384.818140	43.602000
3.762799	384.659629	43.702000
3.766061	384.419961	43.802000
3.766841	384.318863	43.902000
3.763406	384.567588	44.002000
3.759775	384.820707	44.102000
3.759825	384.852419	44.202000
3.763690	384.537415	44.302000
3.766092	384.401402	44.402000
3.765960	384.399075	44.502000
3.763909	384.506027	44.602000
3.760811	384.779267	44.702000
3.759357	384.898587	44.802000
3.761719	384.724195	44.902000
3.765832	384.385002	45.002000
3.767111	384.278199	45.102000
3.764230	384.505805	45.202000
3.760477	384.810351	45.302000
3.759469	384.886503	45.402000
3.762036	384.699196	45.502000
3.765314	384.445080	45.602000
3.767324	384.250302	45.702000
3.764857	384.427533	45.802000
3.760685	384.764993	45.902000
3.759565	384.859030	46.002000
3.762442	384.629150	46.102000
3.765761	384.391508	46.202000
3.766531	384.355079	46.302000
3.765546	384.417114	46.402000
3.762073	384.658415	46.502000
3.759932	384.851392	46.602000
3.760609	384.818584	46.702000
3.765228	384.453198	46.802000
3.767784	384.253708	46.902000
3.766141	384.359005	47.002000
3.762321	384.668761	47.102000
3.760393	384.859467	47.202000
3.761430	384.795639	47.302000
3.763666	384.637252	47.402000
3.766629	384.402685	47.502000
3.767891	384.245119	47.602000
3.763633	384.570611	47.702000
3.760148	384.825547	47.802000
3.760805	384.819942	47.902000
3.764186	384.563366	48.002000
3.766907	384.336818	48.102000
3.766846	384.287175	48.202000
3.764385	384.514244	48.302000
3.760539	384.801825	48.402000
3.759497	384.885018	48.502000
3.763735	384.504990	48.602000
3.767268	384.275340	48.702000
3.766973	384.302310	48.802000
3.764447	384.504321	48.902000
3.761385	384.740319	49.002000
3.760115	384.822047	49.102000
3.761489	384.752026	49.202000
3.766354	384.335641	49.302000
3.768252	384.190949	49.402000
3.765540	384.380807	49.502000
3.761204	384.730546	49.603000
3.759909	384.858909	49.702000
3.761772	384.694306	49.802000
3.765063	384.464563	49.902000
3.766986	384.293676	50.002000
3.766080	384.344538	50.102000
3.762669	384.581590	50.202000
3.759595	384.849314	50.302000
3.760789	384.747284	50.402000
3.764587	384.495063	50.502000
3.767372	384.249634	50.602000
3.766354	384.336086	50.702000
3.763766	384.512097	50.802000
3.760867	384.752915	50.902000
3.760472	384.799179	51.002000
3.763785	384.563514	51.102000
3.767638	384.221316	51.202000
3.767430	384.246546	51.302000
3.764462	384.487954	51.402000
3.762278	384.619765	51.502000
3.760615	384.755925	51.602000
3.762008	384.715296	51.702000
3.765707	384.387572	51.802000
3.768407	384.168449	51.902000
3.765869	384.320125	52.002000
3.761394	384.713559	52.102000
3.759978	384.815748	52.202000
3.762561	384.641863	52.302000
3.765738	384.399573	52.402000
3.767347	384.257412	52.502000
3.766508	384.320491	52.602000
3.763107	384.552222	52.702000
3.759635	384.840268	52.802000
3.760622	384.784110	52.902000
3.765136	384.412703	53.002000
3.767886	384.177923	53.102000
3.766287	384.336267	53.202000
3.763535	384.548772	53.302000
3.760392	384.788646	53.402000
3.760637	384.768007	53.502000
3.764052	384.462623	53.602000
3.767696	384.226719	53.702000
3.767536	384.205824	53.802000
3.763631	384.504097	53.902000
3.761355	384.642896	54.002000
3.761511	384.694925	54.102000
3.763356	384.575293	54.202000
3.766405	384.341505	54.302000
3.768244	384.142074	54.402000
3.765956	384.319270	54.502000
3.760687	384.757406	54.602000
3.759812	384.820120	54.702000
3.763039	384.578521	54.802000
3.766801	384.289373	54.902000
3.767881	384.180781	55.002000
3.766066	384.331675	55.102000
3.762918	384.575868	55.202000
3.760012	384.825730	55.302000
3.761825	384.675267	55.402000
3.766173	384.340287	55.502000
3.768581	384.117985	55.602000
3.766786	384.266710	55.702000
3.763159	384.561786	55.802000
3.760604	384.763754	55.902000
3.760771	384.765340	56.002000
3.764362	384.466024	56.102000
3.767877	384.198115	56.202000
3.767632	384.181267	56.302000
3.763711	384.455430	56.402000
3.760628	384.698489	56.502000
3.761244	384.649047	56.602000
3.763404	384.518028	56.702000
3.766385	384.317047	56.802000
3.768004	384.150588	56.902000
3.765466	384.373665	57.002000
3.761052	384.691081	57.102000
3.759669	384.808647	57.202000
3.763202	384.503583	57.302000
3.767396	384.220298	57.402000
3.768057	384.151472	57.502000
3.765956	384.290526	57.602000
3.762289	384.609718	57.702000
3.760267	384.773385	57.802000
3.761765	384.660717	57.902000
3.765101	384.391615	58.002000
3.768155	384.162138	58.102000
3.766728	384.212883	58.202000
3.762320	384.563897	58.302000
3.760150	384.740074	58.402000
3.761231	384.640928	58.502000
3.764381	384.451069	58.602000
3.767422	384.199309	58.702000
3.767714	384.144584	58.802000
3.763643	384.456764	58.902000
3.760357	384.741482	59.002000
3.761223	384.608259	59.102000
3.764908	384.357319	59.202000
3.767157	384.201941	59.302000
3.767607	384.162077	59.402000
3.764804	384.375127	59.502000
3.761204	384.679334	59.602000
3.760034	384.743926	59.702000
3.763138	384.518695	59.802000
3.767886	384.122445	59.902000
3.768414	384.051748	60.002000
3.764565	384.369448	60.102000
3.761483	384.594501	60.202000
3.760566	384.709083	60.302000
3.762632	384.572493	60.402000
3.766267	384.273465	60.502000
3.768103	384.125919	60.602000
3.765777	384.275041	60.702000
3.761890	384.562612	60.802000
3.759489	384.782052	60.902000
3.762113	384.539948	61.002000
3.765901	384.257509	61.102000
3.767705	384.128363	61.202000
3.766834	384.156207	61.302000
3.762722	384.497210	61.402000
3.759331	384.750740	61.502000
3.761387	384.609763	61.602000
3.765596	384.261063	61.702000
3.767986	384.089603	61.802000
3.766660	384.155952	61.902000
3.763545	384.413837	62.002000
3.760530	384.664297	62.102000
3.760280	384.721877	62.202000
3.763647	384.436551	62.302000
3.767815	384.100310	62.402000
3.768062	384.070518	62.502000
3.763825	384.382262	62.602000
3.760386	384.668804	62.702000
3.760910	384.601423	62.802000
3.763422	384.458541	62.902000
3.766140	384.232204	63.002000
3.767588	384.109843	63.102000
3.765364	384.278583	63.202000
3.761101	384.579712	63.302000
3.759690	384.707157	63.402000
3.762832	384.417295	63.502000
3.766430	384.166300	63.602000
3.767003	384.159071	63.702000
3.765187	384.252671	63.802000
3.761951	384.498101	63.902000
3.759839	384.698720	64.002000
3.761511	384.559971	64.102000
3.766037	384.204222	64.202000
3.767971	384.042783	64.302000
3.766040	384.148896	64.402000
3.762186	384.480540	64.502000
3.760834	384.608659	64.602000
3.761656	384.580569	64.702000
3.764644	384.340340	64.802000
3.767965	384.066123	64.902000
3.767650	384.091116	65.002000
3.763237	384.425457	65.102000
3.760040	384.664519	65.202000
3.761919	384.519568	65.302000
3.765541	384.269331	65.402000
3.767947	384.075628	65.502000
3.766866	384.164300	65.602000
3.764162	384.375352	65.702000
3.761748	384.549301	65.802000
3.760425	384.694189	65.902000
3.763265	384.461683	66.002000
