probe voltage (V), probe current (A), resistance (9.9e37 if not enabled) , timestamp , status word ,
-6.600000E+01,-1.364530E-07,+9.910000E+37,+1.064444E+04,+2.150800E+04,
-6.590000E+01,-7.483211E-08,+9.910000E+37,+1.064552E+04,+2.150800E+04,
-6.580000E+01,-6.523537E-08,+9.910000E+37,+1.064658E+04,+2.150800E+04,
-6.570000E+01,-5.513362E-08,+9.910000E+37,+1.064765E+04,+2.150800E+04,
-6.560000E+01,-5.361832E-08,+9.910000E+37,+1.064871E+04,+2.150800E+04,
-6.550000E+01,-5.109288E-08,+9.910000E+37,+1.064977E+04,+2.150800E+04,
-6.540000E+01,-5.058779E-08,+9.910000E+37,+1.065083E+04,+2.150800E+04,
-6.530000E+01,-4.351654E-08,+9.910000E+37,+1.065191E+04,+2.150800E+04,
-6.520000E+01,-4.755726E-08,+9.910000E+37,+1.065297E+04,+2.150800E+04,
-6.510000E+01,-4.351653E-08,+9.910000E+37,+1.065403E+04,+2.150800E+04,
-6.500000E+01,-3.947583E-08,+9.910000E+37,+1.065510E+04,+2.150800E+04,
-6.490000E+01,-3.846564E-08,+9.910000E+37,+1.065616E+04,+2.150800E+04,
-6.480000E+01,-3.745546E-08,+9.910000E+37,+1.065721E+04,+2.150800E+04,
-6.470000E+01,-3.240457E-08,+9.910000E+37,+1.065830E+04,+2.150800E+04,
-6.460000E+01,-3.543511E-08,+9.910000E+37,+1.065936E+04,+2.150800E+04,
-6.450000E+01,-3.088930E-08,+9.910000E+37,+1.066042E+04,+2.150800E+04,
-6.440000E+01,-3.442493E-08,+9.910000E+37,+1.066148E+04,+2.150800E+04,
-6.430000E+01,-2.432314E-08,+9.910000E+37,+1.066254E+04,+2.150800E+04,
-6.420000E+01,-2.684859E-08,+9.910000E+37,+1.066360E+04,+2.150800E+04,
-6.410000E+01,-2.583841E-08,+9.910000E+37,+1.066466E+04,+2.150800E+04,
-6.400000E+01,-2.230278E-08,+9.910000E+37,+1.066572E+04,+2.150800E+04,
-6.390000E+01,-2.836385E-08,+9.910000E+37,+1.066678E+04,+2.150800E+04,
-6.380000E+01,-1.876718E-08,+9.910000E+37,+1.066783E+04,+2.150800E+04,
-6.370000E+01,-1.876716E-08,+9.910000E+37,+1.066891E+04,+2.150800E+04,
-6.360000E+01,-1.371627E-08,+9.910000E+37,+1.066997E+04,+2.150800E+04,
-6.350000E+01,-1.270609E-08,+9.910000E+37,+1.067103E+04,+2.150800E+04,
-6.340000E+01,-1.119082E-08,+9.910000E+37,+1.067209E+04,+2.150800E+04,
-6.330000E+01,-8.665374E-09,+9.910000E+37,+1.067317E+04,+2.150800E+04,
-6.320000E+01,-9.170463E-09,+9.910000E+37,+1.067423E+04,+2.150800E+04,
-6.310000E+01,-5.129751E-09,+9.910000E+37,+1.067529E+04,+2.150800E+04,
-6.300000E+01,-1.594123E-09,+9.910000E+37,+1.067635E+04,+2.150800E+04,
-6.290000E+01,-2.099215E-09,+9.910000E+37,+1.067741E+04,+2.150800E+04,
-6.280000E+01,-1.594124E-09,+9.910000E+37,+1.067847E+04,+2.150800E+04,
-6.270000E+01,-2.604305E-09,+9.910000E+37,+1.067953E+04,+2.150800E+04,
-6.260000E+01,-7.885625E-11,+9.910000E+37,+1.068059E+04,+2.150800E+04,
-6.250000E+01,+8.001857E-09,+9.910000E+37,+1.068165E+04,+2.150800E+04,
-6.240000E+01,+4.971629E-09,+9.910000E+37,+1.068273E+04,+2.150800E+04,
-6.230000E+01,+6.991781E-09,+9.910000E+37,+1.068379E+04,+2.150800E+04,
-6.220000E+01,+1.052705E-08,+9.910000E+37,+1.068485E+04,+2.150800E+04,
-6.210000E+01,+4.466588E-09,+9.910000E+37,+1.068591E+04,+2.150800E+04,
-6.200000E+01,+1.204217E-08,+9.910000E+37,+1.068697E+04,+2.150800E+04,
-6.190000E+01,+1.406232E-08,+9.910000E+37,+1.068803E+04,+2.150800E+04,
-6.180000E+01,+1.456735E-08,+9.910000E+37,+1.068911E+04,+2.150800E+04,
-6.170000E+01,+1.254719E-08,+9.910000E+37,+1.069017E+04,+2.150800E+04,
-6.160000E+01,+1.254720E-08,+9.910000E+37,+1.069126E+04,+2.150800E+04,
-6.150000E+01,+1.305224E-08,+9.910000E+37,+1.069232E+04,+2.150800E+04,
-6.140000E+01,+1.860766E-08,+9.910000E+37,+1.069338E+04,+2.150800E+04,
-6.130000E+01,+1.860766E-08,+9.910000E+37,+1.069443E+04,+2.150800E+04,
-6.120000E+01,+2.163789E-08,+9.910000E+37,+1.069549E+04,+2.150800E+04,
-6.110000E+01,+2.264797E-08,+9.910000E+37,+1.069656E+04,+2.150800E+04,
-6.100000E+01,+2.062782E-08,+9.910000E+37,+1.069764E+04,+2.150800E+04,
-6.090000E+01,+2.517315E-08,+9.910000E+37,+1.069871E+04,+2.150800E+04,
-6.080000E+01,+2.264796E-08,+9.910000E+37,+1.069977E+04,+2.150800E+04,
-6.070000E+01,+2.517316E-08,+9.910000E+37,+1.070083E+04,+2.150800E+04,
-6.060000E+01,+2.517316E-08,+9.910000E+37,+1.070191E+04,+2.150800E+04,
-6.050000E+01,+2.971852E-08,+9.910000E+37,+1.070297E+04,+2.150800E+04,
-6.040000E+01,+2.971849E-08,+9.910000E+37,+1.070403E+04,+2.150800E+04,
-6.030000E+01,+2.517314E-08,+9.910000E+37,+1.070509E+04,+2.150800E+04,
-6.020000E+01,+3.426385E-08,+9.91000


current through plasma (-mA) <tab> voltage across plasma (-V) <tab> time (sec)
3.805272	381.868916	0.001000
3.804765	381.989025	0.101000
3.801822	382.233942	0.201000
3.799373	382.394451	0.301000
3.798884	382.379423	0.401000
3.802068	382.147151	0.501000
3.806044	381.827736	0.601000
3.806452	381.801263	0.701000
3.802946	382.075003	0.801000
3.799884	382.300864	0.901000
3.800225	382.305844	1.001000
3.802452	382.129115	1.101000
3.805108	381.942980	1.201000
3.806507	381.772695	1.301000
3.804178	381.921713	1.401000
3.800283	382.251690	1.501000
3.799131	382.382511	1.601000
3.802161	382.131145	1.701000
3.805710	381.872899	1.801000
3.806094	381.818376	1.901000
3.803869	381.981857	2.001000
3.800858	382.184927	2.101000
3.799059	382.336894	2.201000
3.801300	382.175882	2.301000
3.805344	381.855120	2.401000
3.806344	381.784642	2.502000
3.803591	382.004595	2.601000
3.800500	382.243088	2.701000
3.799003	382.344896	2.803000
3.800330	382.274344	2.901000
3.803597	382.004599	3.001000
3.806597	381.749036	3.101000
3.805342	381.782150	3.201000
3.800834	382.227164	3.301000
3.798759	382.398675	3.401000
3.801037	382.224794	3.501000
3.804453	381.974551	3.601000
3.805982	381.814783	3.701000
3.805396	381.824285	3.801000
3.802445	382.058515	3.901000
3.799699	382.269826	4.001000
3.799055	382.322644	4.101000
3.803355	382.004611	4.201000
3.806168	381.803168	4.301000
3.805497	381.861278	4.401000
3.801926	382.112550	4.501000
3.799492	382.289972	4.601000
3.799578	382.287828	4.701000
3.802717	382.070292	4.801000
3.805835	381.803115	4.901000
3.806256	381.760118	5.001000
3.802561	382.064293	5.101000
3.799517	382.302054	5.201000
3.799738	382.316510	5.301000
3.802099	382.160680	5.401000
3.805158	381.896980	5.501000
3.805930	381.805391	5.601000
3.803871	381.947721	5.701000
3.799649	382.287085	5.801000
3.798982	382.344659	5.901000
3.801831	382.148661	6.001000
3.805725	381.847928	6.101000
3.805816	381.838836	6.201000
3.803147	382.018356	6.301000
3.801042	382.134137	6.401000
3.799534	382.299809	6.501000
3.801134	382.165148	6.601000
3.805035	381.852760	6.701000
3.807194	381.720142	6.801000
3.804328	381.950536	6.901000
3.800356	382.265826	7.001000
3.798858	382.399763	7.101000
3.801469	382.204411	7.201000
3.804480	382.010064	7.301000
3.806851	381.794225	7.401000
3.805738	381.878751	7.501000
3.801771	382.201151	7.601000
3.799811	382.374574	7.701000
3.802075	382.229794	7.801000
3.805529	381.942912	7.901000
3.806533	381.867613	8.001000
3.805268	381.961628	8.101000
3.802615	382.153346	8.201000
3.800658	382.315421	8.301000
3.801053	382.295953	8.401000
3.804982	381.983369	8.501000
3.807851	381.778102	8.601000
3.806269	381.888144	8.701000
3.801964	382.209522	8.801000
3.800168	382.350350	8.901000
3.801702	382.211502	9.001000
3.803857	382.053122	9.101000
3.806486	381.851979	9.201000
3.806341	381.851582	9.301000
3.803566	382.062176	9.401000
3.800123	382.335351	9.501000
3.800456	382.323099	9.601000
3.804371	382.046646	9.701000
3.806397	381.846316	9.801000
3.806269	381.854157	9.901000
3.803238	382.066980	10.001000
3.800245	382.313532	10.101000
3.800484	382.318800	10.201000
3.803884	382.053744	10.301000
3.806890	381.852760	10.401000
3.806354	381.878301	10.501000
3.803011	382.141692	10.601000
3.800933	382.297823	10.701000
3.800497	382.322940	10.801000
3.802676	382.167096	10.901000
3.806717	381.847415	11.001000
3.807962	381.715631	11.101000
3.804665	381.991141	11.201000
3.800202	382.347350	11.301000
3.799839	382.369147	11.401000
3.802981	382.141719	11.501000
3.806325	381.895190	11.601000
3.806466	381.834896	11.701000
3.804999	381.941195	11.801000
3.801713	382.180167	11.901000
3.799547	382.343395	12.001000
3.801840	382.201284	12.101000
3.805750	381.882149	12.201000
3.806970	381.787238	12.301000
3.804585	381.970760	12.401000
3.801147	382.195834	12.501000
3.799461	382.347623	12.601000
3.800914	382.209476	12.701000
3.804599	381.945728	12.801000
3.807608	381.736590	12.901000
3.805517	381.888771	13.001000
3.801448	382.235733	13.101000
3.799881	382.332688	13.201000
3.801583	382.238496	13.301000
3.804360	382.013420	13.401000
3.806683	381.835118	13.501000
3.806229	381.857747	13.601000
3.803076	382.087774	13.701000
3.799494	382.378979	13.801000
3.800543	382.300572	13.901000
3.805030	381.970007	14.001000
3.807041	381.772890	14.101000
3.805331	381.886756	14.201000
3.802167	382.099443	14.301000
3.800075	382.259834	14.401000
3.800037	382.273458	14.501000
3.802670	382.082313	14.601000
3.805780	381.854866	14.701000
3.805816	381.827926	14.801000
3.802527	382.079807	14.901000
3.799336	382.335858	15.001000
3.799819	382.301674	15.101000
3.802314	382.118688	15.201000
3.805329	381.865713	15.301000
3.806194	381.761139	15.401000
3.803205	382.027305	15.501000
3.799519	382.319458	15.601000
3.798825	382.375186	15.701000
3.802234	382.085327	15.801000
3.805315	381.868973	15.901000
3.805337	381.834170	16.001000
3.803930	381.932445	16.101000
3.800721	382.168852	16.201000
3.798566	382.360697	16.301000
3.801109	382.196262	16.401000
3.805023	381.879572	16.501000
3.806389	381.786011	16.601000
3.803808	381.940010	16.701000
3.799783	382.260045	16.801000
3.799087	382.288490	16.901000
3.801586	382.117018	17.001000
3.804380	381.914906	17.101000
3.805768	381.809244	17.201000
3.804858	381.869714	17.301000
3.800503	382.233134	17.401000
3.798636	382.396230	17.501000
3.800659	382.243977	17.601000
3.803833	382.008790	17.701000
3.806046	381.807284	17.801000
3.804702	381.882599	17.901000
3.801326	382.134355	18.001000
3.798642	382.342140	18.101000
3.799574	382.297012	18.201000
3.804296	381.926212	18.301000
3.806335	381.745332	18.401000
3.804014	381.905643	18.501000
3.800878	382.119366	18.601000
3.799154	382.271824	18.701000
3.800020	382.210041	18.801000
3.802714	382.025076	18.901000
3.805510	381.778561	19.001000
3.804781	381.849193	19.101000
3.800984	382.140581	19.201000
3.797798	382.403517	19.301000
3.799382	382.285676	19.401000
3.803346	381.950650	19.501000
3.805610	381.782694	19.601000
3.804855	381.822137	19.701000
3.802173	382.037362	19.801000
3.799250	382.281751	19.901000
3.798936	382.362138	20.002000
3.802471	382.074062	20.101000
3.805379	381.838289	20.201000
3.804636	381.877326	20.301000
3.802006	382.077066	20.401000
3.799075	382.306414	20.501000
3.798935	382.343164	20.601000
3.801682	382.110921	20.701000
3.805398	381.848971	20.801000
3.805640	381.758622	20.901000
3.801937	382.107097	21.001000
3.798829	382.315836	21.101000
3.799107	382.254193	21.201000
3.801533	382.073173	21.301000
3.804028	381.906310	21.401000
3.805235	381.761244	21.501000
3.803652	381.898833	21.601000
3.799902	382.204100	21.701000
3.797787	382.408608	21.801000
3.800797	382.152776	21.901000
3.804721	381.830704	22.001000
3.805657	381.747354	22.101000
3.803058	381.952545	22.201000
3.800025	382.200231	22.301000
3.798767	382.330126	22.401000
3.800049	382.211893	22.501000
3.804126	381.926019	22.601000
3.805799	381.783657	22.701000
3.803676	381.960918	22.801000
3.799585	382.246939	22.901000
3.798790	382.288112	23.001000
3.799802	382.215893	23.101000
3.803203	381.968747	23.201000
3.805287	381.790923	23.301000
3.804033	381.852316	23.401000
3.799684	382.183355	23.501000
3.797337	382.363895	23.601000
3.799270	382.227884	23.701000
3.803399	381.892154	23.801000
3.804809	381.763926	23.901000
3.803065	381.852812	24.001000
3.800506	382.057997	24.101000
3.797884	382.270341	24.201000
3.798051	382.270566	24.301000
3.801157	382.044767	24.401000
3.804946	381.753808	24.501000
3.803662	381.820136	24.601000
3.799696	382.105177	24.701000
3.797404	382.272494	24.801000
3.798219	382.222635	24.901000
3.801134	382.015684	25.001000
3.803908	381.813614	25.101000
3.804339	381.780842	25.201000
3.800636	382.067939	25.301000
3.797436	382.311740	25.401000
3.797623	382.294200	25.501000
3.801202	382.013864	25.601000
3.803762	381.806327	25.701000
3.803932	381.790077	25.801000
3.801610	381.959605	25.901000
3.797790	382.292789	26.001000
3.796939	382.357372	26.101000
3.800336	382.089476	26.201000
3.804524	381.721145	26.301000
3.804475	381.725444	26.401000
3.800788	381.987618	26.501000
3.798188	382.176091	26.601000
3.798076	382.215363	26.701000
3.799546	382.139488	26.801000
3.802841	381.895560	26.901000
3.804602	381.732380	27.001000
3.802055	381.946024	27.101000
3.797666	382.268344	27.201000
3.797112	382.324125	27.301000
3.799793	382.082809	27.401000
3.802878	381.858666	27.501000
3.803989	381.759733	27.601000
3.802100	381.898909	27.701000
3.798092	382.206263	27.801000
3.796431	382.327182	27.901000
3.798572	382.182093	28.001000
3.802192	381.859613	28.101000
3.803679	381.719588	28.201000
3.802142	381.821282	28.301000
3.798755	382.057584	28.401000
3.796172	382.285750	28.501000
3.797247	382.205314	28.601000
3.800640	381.960547	28.701000
3.803746	381.688967	28.801000
3.802255	381.785039	28.901000
3.798038	382.104767	29.001000
3.795766	382.264051	29.101000
3.797477	382.137840	29.201000
3.800260	381.945009	29.301000
3.802228	381.791137	29.401000
3.802609	381.756266	29.501000
3.799354	382.010393	29.601000
3.795676	382.298469	29.701000
3.795354	382.339695	29.801000
3.799400	382.001411	29.901000
3.802487	381.726518	30.001000
3.801932	381.735701	30.101000
3.798948	381.962166	30.201000
3.795586	382.202500	30.301000
3.795003	382.294941	30.401000
3.797446	382.089839	30.501000
3.801369	381.758044	30.601000
3.802112	381.690216	30.701000
3.798704	381.902162	30.801000
3.794936	382.162013	30.901000
3.794462	382.191476	31.001000
3.796063	382.069023	31.101000
3.799325	381.828774	31.201000
3.801203	381.648382	31.301000
3.799350	381.798640	31.401000
3.794483	382.151418	31.501000
3.792773	382.284713	31.601000
3.795372	382.048118	31.701000
3.799037	381.761378	31.801000
3.799891	381.677788	31.901000
3.798604	381.765066	32.001000
3.795483	382.007598	32.101000
3.792597	382.247359	32.201000
3.793549	382.186619	32.301000
3.797517	381.866001	32.401000
3.800095	381.623988	32.501000
3.797933	381.767066	32.601000
3.794001	382.050619	32.701000
3.792254	382.175593	32.801000
3.793014	382.144553	32.901000
3.795960	381.915338	33.001000
3.798991	381.657200	33.101000
3.798037	381.684260	33.201000
3.794097	381.990622	33.301000
3.791407	382.158925	33.401000
3.792128	382.110765	33.501000
3.795293	381.841327	33.601000
3.797626	381.688185	33.701000
3.797884	381.635895	33.801000
3.794884	381.863731	33.901000
3.790946	382.238235	34.001000
3.790362	382.249132	34.101000
3.794546	381.896084	34.201000
3.798174	381.601750	34.301000
3.797192	381.655398	34.401000
3.794549	381.835266	34.501000
3.791047	382.120361	34.601000
3.790710	382.137664	34.701000
3.792312	382.030370	34.801000
3.795769	381.761675	34.901000
3.797505	381.547080	35.001000
3.794502	381.795018	35.101000
3.790367	382.114880	35.201000
3.789484	382.135744	35.301000
3.791720	381.974302	35.401000
3.794582	381.731108	35.501000
3.796266	381.567316	35.601000
3.793929	381.720849	35.701000
3.789551	382.028300	35.801000
3.787499	382.163171	35.901000
3.789860	381.926522	36.001000
3.792816	381.695074	36.101000
3.794000	381.582325	36.201000
3.792484	381.622210	36.301000
3.789012	381.880165	36.401000
3.785809	382.104772	36.501000
3.786092	382.065181	36.601000
3.789989	381.745110	36.701000
3.792694	381.488504	36.801000
3.790691	381.612965	36.901000
3.786761	381.850225	37.001000
3.784503	381.989815	37.101000
3.785249	381.958388	37.201000
3.787458	381.795047	37.301000
3.790172	381.552574	37.401000
3.790180	381.554609	37.501000
3.786446	381.798426	37.601000
3.783302	382.040052	37.701000
3.783133	382.021648	37.801000
3.786357	381.754702	37.901000
3.789173	381.525905	38.001000
3.789220	381.488330	38.102000
3.786560	381.691496	38.201000
3.782621	382.028222	38.301000
3.782178	382.020799	38.401000
3.785294	381.796425	38.501000
3.788582	381.543760	38.601000
3.788865	381.437062	38.701000
3.786020	381.672113	38.801000
3.783050	381.874819	38.901000
3.781376	381.990144	39.001000
3.782743	381.883261	39.101000
3.786320	381.571383	39.201000
3.788224	381.386498	39.301000
3.784856	381.591255	39.401000
3.780588	381.897644	39.501000
3.779526	381.957786	39.601000
3.782119	381.777853	39.701000
3.785174	381.560357	39.801000
3.786742	381.453783	39.901000
3.786090	381.499695	40.001000
3.782616	381.853575	40.101000
3.779979	382.068347	40.201000
3.781790	381.951804	40.301000
3.785855	381.646316	40.401000
3.788371	381.437580	40.501000
3.786974	381.558052	40.601000
3.783815	381.795240	40.701000
3.781516	382.000818	40.801000
3.781828	381.994261	40.901000
3.785339	381.712480	41.001000
3.788662	381.417747	41.101000
3.786971	381.501747	41.201000
3.783370	381.765647	41.301000
3.781415	381.902456	41.401000
3.781317	381.899496	41.501000
3.783589	381.743035	41.601000
3.786720	381.488800	41.701000
3.787619	381.432023	41.801000
3.783993	381.719033	41.901000
3.780242	381.994584	42.001000
3.780177	381.966919	42.101000
3.783715	381.715664	42.201000
3.786709	381.488306	42.301000
3.787041	381.447009	42.401000
3.784500	381.636507	42.501000
3.781250	381.905199	42.601000
3.779692	382.008265	42.701000
3.781821	381.832772	42.801000
3.785391	381.519385	42.901000
3.785957	381.371686	43.001000
3.782687	381.535312	43.101000
3.778688	381.782174	43.201000
3.776697	381.880609	43.301000
3.777211	381.809689	43.401000
3.780293	381.468728	43.501000
3.781159	381.283957	43.601000
3.777321	381.417474	43.701000
3.770354	381.671056	43.801000
3.764085	381.642137	43.901000
3.760774	381.412859	44.001000
3.758981	381.131121	44.101000
3.756814	380.876422	44.201000
3.752916	380.811261	44.301000
3.750195	381.148467	44.401000
3.751014	381.530495	44.501000
3.756506	381.516575	44.601000
3.764668	381.260269	44.701000
3.770516	381.123803	44.801000
3.771868	381.236249	44.901000
3.770713	381.440509	45.001000
3.769558	381.673817	45.101000
3.770230	381.773240	45.201000
3.773927	381.573412	45.301000
3.777836	381.338110	45.401000
3.778902	381.293043	45.501000
3.775648	381.549539	45.601000
3.772224	381.821373	45.701000
3.771931	381.840452	45.801000
3.774742	381.656236	45.901000
3.777981	381.380672	46.001000
3.779724	381.266844	46.101000
3.776549	381.461393	46.201000
3.772384	381.811614	46.301000
3.771602	381.836169	46.401000
3.774419	381.613394	46.501000
3.777453	381.390292	46.601000
3.778601	381.271680	46.701000
3.777543	381.347073	46.801000
3.773874	381.626637	46.901000
3.770745	381.896246	47.001000
3.772626	381.770297	47.101000
3.777150	381.419723	47.201000
3.779206	381.247467	47.301000
3.776846	381.421724	47.401000
3.773340	381.650190	47.501000
3.771714	381.783484	47.601000
3.772506	381.755794	47.701000
3.775661	381.512728	47.801000
3.778479	381.260418	47.901000
3.777374	381.343101	48.001000
3.773072	381.648242	48.101000
3.770472	381.833784	48.201000
3.771172	381.749248	48.301000
3.774375	381.496132	48.401000
3.776943	381.266345	48.501000
3.776997	381.249921	48.601000
3.773634	381.543087	48.701000
3.769576	381.850589	48.801000
3.769719	381.794180	48.901000
3.773756	381.460476	49.001000
3.776466	381.254677	49.101000
3.775532	381.290723	49.201000
3.772777	381.433007	49.301000
3.769746	381.612416	49.401000
3.767549	381.757141	49.501000
3.769045	381.590514	49.601000
3.771737	381.259880	49.701000
3.771020	381.096808	49.801000
3.766761	381.362334	49.901000
3.763774	381.625007	50.001000
3.763911	381.680841	50.101000
3.767323	381.535387	50.201000
3.771315	381.295493	50.301000
3.773937	381.176464	50.401000
3.772537	381.326585	50.501000
3.769103	381.630062	50.601000
3.767640	381.792248	50.701000
3.769626	381.651546	50.801000
3.773260	381.394884	50.901000
3.775429	381.200959	51.001000
3.774893	381.229742	51.101000
3.771100	381.527388	51.201000
3.767612	381.818396	51.301000
3.768401	381.728516	51.401000
3.772297	381.388671	51.501000
3.774524	381.163949	51.601000
3.772613	381.244694	51.701000
3.767445	381.447214	51.801000
3.763287	381.584197	51.901000
3.762439	381.581643	52.001000
3.765296	381.417600	52.101000
3.769986	381.139055	52.201000
3.771251	381.104298	52.301000
3.768071	381.444065	52.401000
3.764308	381.757229	52.501000
3.765527	381.698313	52.601000
3.769064	381.472122	52.701000
3.771617	381.221199	52.801000
3.772109	381.166464	52.901000
3.768521	381.313546	53.001000
3.762493	381.546053	53.101000
3.760115	381.667721	53.201000
3.763592	381.481245	53.301000
3.768759	381.226989	53.401000
3.771357	381.159205	53.501000
3.770737	381.305366	53.601000
3.768347	381.589910	53.701000
3.767376	381.776546	53.801000
3.769767	381.708069	53.901000
3.774787	381.340673	54.001000
3.777505	381.198899	54.101000
3.775046	381.391522	54.201000
3.771756	381.667254	54.301000
3.770986	381.758060	54.401000
3.772382	381.647167	54.501000
3.775303	381.438045	54.601000
3.777610	381.284206	54.701000
3.777460	381.293414	54.801000
3.773447	381.600800	54.901000
3.770098	381.877743	55.001000
3.771257	381.778861	55.101000
3.775275	381.490864	55.201000
3.777490	381.258399	55.301000
3.777373	381.286430	55.401000
3.773549	381.511729	55.501000
3.770624	381.713375	55.601000
3.769570	381.799324	55.701000
3.772248	381.590270	55.801000
3.775827	381.285610	55.901000
3.775680	381.227299	56.001000
3.772520	381.402338	56.101000
3.768830	381.621526	56.201000
3.765829	381.707573	56.301000
3.764371	381.475912	56.401000
3.764249	381.130091	56.501000
3.762746	380.912145	56.601000
3.760059	381.106842	56.701000
3.757421	381.456414	56.801000
3.758848	381.562426	56.901000
3.763213	381.440489	57.001000
3.768295	381.245372	57.101000
3.771973	381.128313	57.201000
3.772997	381.177140	57.301000
3.770420	381.529016	57.401000
3.767988	381.852231	57.501000
3.770155	381.774573	57.601000
3.775297	381.470034	57.701000
3.778645	381.233717	57.801000
3.777545	381.366597	57.901000
3.774847	381.608892	58.001000
3.772488	381.803518	58.101000
3.772988	381.832733	58.201000
3.776468	381.589295	58.301000
3.780156	381.323138	58.401000
3.780128	381.344519	58.501000
3.776690	381.612564	58.601000
3.774066	381.817394	58.701000
3.774027	381.835947	58.801000
3.776738	381.637020	58.901000
3.780842	381.333846	59.001000
3.781235	381.304754	59.101000
3.778100	381.566803	59.201000
3.774015	381.884011	59.301000
3.774049	381.922592	59.401000
3.777519	381.681013	59.501000
3.780838	381.430553	59.601000
3.781986	381.353631	59.701000
3.780092	381.469024	59.801000
3.777079	381.693358	59.901000
3.775110	381.913415	60.001000
3.776903	381.832658	60.101000
3.781111	381.474986	60.201000
3.783042	381.334358	60.301000
3.780354	381.519911	60.401000
3.776678	381.800744	60.501000
3.775278	381.906902	60.601000
3.776553	381.792989	60.701000
3.780042	381.558204	60.801000
3.782888	381.322448	60.901000
3.782038	381.398153	61.001000
3.778459	381.681133	61.101000
3.775231	381.942239	61.201000
3.776321	381.866355	61.301000
3.779325	381.637376	61.401000
3.782456	381.390559	61.501000
3.783277	381.308068	61.601000
3.780133	381.573486	61.701000
3.775578	381.932440	61.801000
3.775789	381.946352	61.901000
3.779789	381.656141	62.001000
3.782936	381.420040	62.101000
3.783143	381.391892	62.201000
3.781442	381.492977	62.301000
3.778980	381.702958	62.401000
3.776101	381.960336	62.501000
3.778553	381.781977	62.601000
3.783304	381.421330	62.701000
3.785026	381.292353	62.801000
3.781867	381.575531	62.901000
3.778164	381.854633	63.001000
3.776860	381.935264	63.101000
3.778568	381.803242	63.201000
3.781503	381.592770	63.301000
3.784363	381.337523	63.401000
3.783018	381.447064	63.501000
3.779113	381.745850	63.601000
3.776496	381.948215	63.701000
3.777247	381.896280	63.801000
3.780751	381.622574	63.901000
3.783401	381.381182	64.001000
3.783290	381.375446	64.101000
3.780076	381.610076	64.201000
3.776152	381.922089	64.301000
3.776530	381.914686	64.401000
3.780626	381.587322	64.501000
3.783474	381.429037	64.601000
3.783072	381.437822	64.701000
3.780668	381.572462	64.801000
3.778062	381.785162	64.901000
3.776535	381.899716	65.001000
3.778837	381.764485	65.101000
3.782917	381.408561	65.201000
3.784871	381.277600	65.301000
3.781248	381.551163	65.401000
3.777128	381.872578	65.501000
3.776462	381.932307	65.601000
3.778278	381.801136	65.701000
3.781730	381.540125	65.801000
3.783790	381.339245	65.901000
3.782303	381.459661	66.001000
