probe voltage (V), probe current (A), resistance (9.9e37 if not enabled) , timestamp , status word ,
-3.100000E+01,-2.117206E-07,+9.910000E+37,+2.189080E+03,+2.150800E+04,
-3.090000E+01,-1.804036E-07,+9.910000E+37,+2.190140E+03,+2.150800E+04,
-3.080000E+01,-1.617145E-07,+9.910000E+37,+2.191199E+03,+2.150800E+04,
-3.070000E+01,-1.566634E-07,+9.910000E+37,+2.192261E+03,+2.150800E+04,
-3.060000E+01,-1.445407E-07,+9.910000E+37,+2.193340E+03,+2.150800E+04,
-3.050000E+01,-1.309028E-07,+9.910000E+37,+2.194401E+03,+2.150800E+04,
-3.040000E+01,-1.197902E-07,+9.910000E+37,+2.195486E+03,+2.150800E+04,
-3.030000E+01,-1.081727E-07,+9.910000E+37,+2.196545E+03,+2.150800E+04,
-3.020000E+01,-9.857555E-08,+9.910000E+37,+2.197606E+03,+2.150800E+04,
-3.010000E+01,-8.645288E-08,+9.910000E+37,+2.198690E+03,+2.150800E+04,
-3.000000E+01,-8.241203E-08,+9.910000E+37,+2.199748E+03,+2.150800E+04,
-2.990000E+01,-6.422801E-08,+9.910000E+37,+2.200807E+03,+2.150800E+04,
-2.980000E+01,-5.210534E-08,+9.910000E+37,+2.201866E+03,+2.150800E+04,
-2.970000E+01,-4.907465E-08,+9.910000E+37,+2.202926E+03,+2.150800E+04,
-2.960000E+01,-3.291113E-08,+9.910000E+37,+2.203989E+03,+2.150800E+04,
-2.950000E+01,-1.977823E-08,+9.910000E+37,+2.205076E+03,+2.150800E+04,
-2.940000E+01,-7.150453E-09,+9.910000E+37,+2.206154E+03,+2.150800E+04,
-2.930000E+01,+5.476862E-09,+9.910000E+37,+2.207232E+03,+2.150800E+04,
-2.920000E+01,+1.103252E-08,+9.910000E+37,+2.208292E+03,+2.150800E+04,
-2.910000E+01,+2.567929E-08,+9.910000E+37,+2.209351E+03,+2.150800E+04,
-2.900000E+01,+3.224507E-08,+9.910000E+37,+2.210410E+03,+2.150800E+04,
-2.890000E+01,+4.487154E-08,+9.910000E+37,+2.211469E+03,+2.150800E+04,
-2.880000E+01,+5.497275E-08,+9.910000E+37,+2.212527E+03,+2.150800E+04,
-2.870000E+01,+6.507393E-08,+9.910000E+37,+2.213587E+03,+2.150800E+04,
-2.860000E+01,+7.163969E-08,+9.910000E+37,+2.214643E+03,+2.150800E+04,
-2.850000E+01,+8.628646E-08,+9.910000E+37,+2.215702E+03,+2.150800E+04,
-2.840000E+01,+9.739778E-08,+9.910000E+37,+2.216763E+03,+2.150800E+04,
-2.830000E+01,+1.095192E-07,+9.910000E+37,+2.217820E+03,+2.150800E+04,
-2.820000E+01,+1.170951E-07,+9.910000E+37,+2.218878E+03,+2.150800E+04,
-2.810000E+01,+1.332570E-07,+9.910000E+37,+2.219954E+03,+2.150800E+04,
-2.800000E+01,+1.433581E-07,+9.910000E+37,+2.221014E+03,+2.150800E+04,
-2.790000E+01,+1.499240E-07,+9.910000E+37,+2.222069E+03,+2.150800E+04,
-2.780000E+01,+1.696212E-07,+9.910000E+37,+2.223130E+03,+2.150800E+04,
-2.770000E+01,+1.756820E-07,+9.910000E+37,+2.224188E+03,+2.150800E+04,
-2.760000E+01,+1.883085E-07,+9.910000E+37,+2.225248E+03,+2.150800E+04,
-2.750000E+01,+2.009349E-07,+9.910000E+37,+2.226328E+03,+2.150800E+04,
-2.740000E+01,+2.110362E-07,+9.910000E+37,+2.227386E+03,+2.150800E+04,
-2.730000E+01,+2.201271E-07,+9.910000E+37,+2.228446E+03,+2.150800E+04,
-2.720000E+01,+2.347739E-07,+9.910000E+37,+2.229525E+03,+2.150800E+04,
-2.710000E+01,+2.448750E-07,+9.910000E+37,+2.230585E+03,+2.150800E+04,
-2.700000E+01,+2.575016E-07,+9.910000E+37,+2.231642E+03,+2.150800E+04

current through plasma (-mA) <tab> voltage across plasma (-V) <tab> time (sec)
2.114906	660.896431	0.001000
2.117080	660.695501	0.101000
2.114509	660.743203	0.201000
2.110716	661.523065	0.301000
2.110590	661.198839	0.401000
2.114423	661.265663	0.501000
2.117597	660.812871	0.601000
2.115432	661.270376	0.701000
2.111442	661.229352	0.801000
2.110273	661.285884	0.901000
2.112943	660.867325	1.001000
2.115996	661.091231	1.101000
2.116429	660.948742	1.201000
2.113700	661.028082	1.301000
2.110224	661.620758	1.401000
2.110824	660.926908	1.501000
2.114892	660.749484	1.601000
2.117478	661.310313	1.701000
2.115090	660.956682	1.801000
2.110825	660.913479	1.901000
2.109795	661.288826	2.001000
2.113839	661.116610	2.101000
2.117202	660.802417	2.201000
2.116124	661.056362	2.301000
2.112414	661.089569	2.401000
2.110249	661.244546	2.501000
2.111738	661.085038	2.601000
2.115563	660.941391	2.701000
2.117129	660.689823	2.801000
2.114498	660.677240	2.901000
2.110385	661.386117	3.001000
2.110351	661.461341	3.101000
2.114491	660.888978	3.201000
2.117132	660.668640	3.301000
2.115133	661.067419	3.401000
2.111569	661.133944	3.501000
2.110559	661.219768	3.601000
2.112715	661.317948	3.701000
2.115926	661.023489	3.801000
2.116646	660.867857	3.901000
2.114078	660.960298	4.001000
2.109939	661.249175	4.101000
2.110349	661.576540	4.201000
2.114582	660.662719	4.301000
2.117559	661.077632	4.401000
2.115312	661.221621	4.501000
2.110925	661.358423	4.601000
2.109881	661.381741	4.701000
2.113373	661.215136	4.801000
2.116539	660.757000	4.901000
2.116287	660.916369	5.001000
2.113009	661.354869	5.101000
2.110384	660.943572	5.201000
2.111218	661.437091	5.301000
2.115261	660.800461	5.401000
2.117191	661.071410	5.501000
2.114302	661.145376	5.601000
2.110623	661.129922	5.701000
2.110621	661.302587	5.801000
2.114271	661.024008	5.901000
2.117025	660.786034	6.001000
2.115580	660.941556	6.101000
2.112093	660.968088	6.201000
2.110233	661.253556	6.301000
2.111730	661.213283	6.401000
2.115630	660.881448	6.501000
2.116745	661.065790	6.601000
2.113859	661.013488	6.701000
2.110443	661.160687	6.801000
2.110504	661.190657	6.901000
2.114462	661.118313	7.001000
2.117050	660.793385	7.101000
2.115302	660.928740	7.201000
2.111536	661.044903	7.301000
2.110216	661.229327	7.401000
2.112679	661.110739	7.501000
2.116440	660.744289	7.601000
2.116360	660.957558	7.701000
2.113312	661.576096	7.801000
2.109467	661.272919	7.901000
2.110857	661.201766	8.001000
2.115018	661.035935	8.101000
2.117562	660.875832	8.201000
2.114604	661.006225	8.301000
2.110387	661.353519	8.401000
2.110407	661.354622	8.501000
2.113731	661.229286	8.601000
2.116357	660.866914	8.701000
2.115795	660.782505	8.801000
2.112674	661.032378	8.901000
2.110519	661.159010	9.001000
2.111216	661.545416	9.101000
2.115573	660.982523	9.201000
2.117320	660.812704	9.301000
2.114206	661.067576	9.401000
2.110230	661.245954	9.501000
2.110287	661.269783	9.601000
2.114301	661.358483	9.701000
2.116957	660.757889	9.801000
2.115241	660.807025	9.901000
2.111998	661.192138	10.001000
2.109766	661.424637	10.101000
2.111855	661.455714	10.201000
2.115657	661.048242	10.301000
2.116964	660.910368	10.401000
2.113438	661.053276	10.501000
2.109591	661.264326	10.601000
2.110549	661.442259	10.701000
2.115280	661.243924	10.801000
2.117248	661.113832	10.901000
2.114421	660.937390	11.001000
2.110198	661.302697	11.101000
2.110317	661.439601	11.201000
2.113331	661.244695	11.301000
2.116244	661.011266	11.401000
2.115426	661.160687	11.501000
2.111916	661.387300	11.601000
2.109368	661.603394	11.701000
2.111101	661.458849	11.801000
2.115634	660.920073	11.901000
2.116716	660.786182	12.001000
2.113878	661.131552	12.101000
2.110132	661.327382	12.201000
2.110349	661.329308	12.301000
2.114278	661.061952	12.401000
2.116406	660.996889	12.501000
2.115103	660.954298	12.601000
2.111862	661.131774	12.701000
2.109728	661.499063	12.801000
2.111496	661.378114	12.901000
2.115789	661.078098	13.001000
2.116904	661.010315	13.101000
2.113035	661.194536	13.201000
2.108949	661.720293	13.301000
2.110116	661.515312	13.401000
2.114932	660.935704	13.501000
2.117243	660.833694	13.601000
2.114447	661.258029	13.701000
2.110973	661.514177	13.801000
2.109747	661.518003	13.901000
2.112482	661.163104	14.001000
2.116031	661.142389	14.101000
2.116341	660.905651	14.201000
2.112597	661.086014	14.301000
2.109345	661.488013	14.401000
2.110814	661.540305	14.501000
2.115551	660.804270	14.601000
2.116730	660.997344	14.701000
2.114048	661.035713	14.801000
2.110198	661.444851	14.901000
2.110116	661.351436	15.001000
2.113397	661.094505	15.101000
2.115957	660.808772	15.201000
2.115423	660.882559	15.301000
2.112429	661.194764	15.401000
2.109597	661.693106	15.501000
2.111415	661.392486	15.601000
2.115423	661.312017	15.701000
2.116901	660.991668	15.801000
2.113217	661.093880	15.901000
2.109516	661.519559	16.001000
2.110595	661.324762	16.101000
2.114597	661.243954	16.201000
2.116537	660.915851	16.301000
2.114435	661.002311	16.401000
2.110905	661.281712	16.501000
2.109833	661.463543	16.601000
2.112526	661.148908	16.701000
2.116284	660.812179	16.801000
2.115919	661.078076	16.901000
2.112243	661.135277	17.001000
2.108918	661.469026	17.101000
2.111072	661.283906	17.201000
2.115349	661.013709	17.301000
2.116552	660.877728	17.401000
2.113321	661.247584	17.501000
2.110136	661.364409	17.601000
2.110366	661.572206	17.701000
2.112899	661.272055	17.801000
2.116077	661.093954	17.901000
2.115319	661.113391	18.001000
2.111683	661.303422	18.101000
2.109462	661.406924	18.201000
2.111390	661.312001	18.301000
2.115883	661.128684	18.401000
2.116725	660.964237	18.501000
2.112873	661.264178	18.601000
2.109365	661.622980	18.701000
2.110751	661.261336	18.801000
2.114671	661.233541	18.901000
2.116846	660.941004	19.001000
2.114624	661.201512	19.101000
2.110715	661.520696	19.201000
2.109467	661.499215	19.301000
2.112399	661.346185	19.401000
2.116718	661.091173	19.501000
2.116171	661.119553	19.601000
2.111890	661.392855	19.701000
2.109132	661.563482	19.801000
2.111442	661.407233	19.901000
2.115653	661.011271	20.001000
2.116312	661.143254	20.101000
2.113378	661.317886	20.201000
2.110321	661.457825	20.301000
2.110494	661.531165	20.401000
2.112863	661.385082	20.501000
2.116144	660.988583	20.601000
2.115411	661.067089	20.701000
2.111349	661.496186	20.801000
2.109163	661.689920	20.901000
2.111778	661.418118	21.001000
2.115925	661.217765	21.101000
2.116742	660.986893	21.201000
2.112850	661.176806	21.301000
2.109790	661.579318	21.401000
2.110553	661.517567	21.501000
2.113837	661.235435	21.601000
2.116387	660.974458	21.701000
2.115217	661.182213	21.801000
2.110915	661.495128	21.901000
2.109287	661.411888	22.001000
2.112249	661.496516	22.101000
2.116528	661.138685	22.201000
2.116472	660.824474	22.301000
2.111288	661.381003	22.401000
2.108810	661.643546	22.501000
2.111574	661.388561	22.601000
2.115704	661.166631	22.701000
2.116358	660.969770	22.801000
2.113184	661.280379	22.901000
2.110679	661.369965	23.001000
2.110176	661.505637	23.101000
2.113082	661.264718	23.201000
2.116439	660.998711	23.301000
2.115232	661.116794	23.401000
2.111105	661.474287	23.501000
2.108927	661.762520	23.601000
2.111712	661.437082	23.701000
2.115308	661.092357	23.801000
2.116020	661.038907	23.901000
2.112544	661.340714	24.001000
2.109741	661.523757	24.101000
2.110663	661.603500	24.201000
2.113751	661.264278	24.301000
2.116501	660.995926	24.401000
2.115341	661.099867	24.501000
2.110855	661.413595	24.601000
2.108695	661.660108	24.701000
2.112487	661.231920	24.801000
2.116715	660.962879	24.901000
2.115860	661.134425	25.001000
2.111690	661.458911	25.101000
2.109017	661.650954	25.201000
2.111170	661.443527	25.301000
2.115118	661.051413	25.401000
2.116135	661.053868	25.501000
2.113922	661.208063	25.601000
2.110202	661.431089	25.701000
2.109668	661.453306	25.801000
2.113310	661.288900	25.901000
2.116353	660.929796	26.001000
2.115362	660.974522	26.101000
2.111140	661.544055	26.201000
2.109242	661.582020	26.301000
2.112068	661.275116	26.401000
2.115125	661.150291	26.501000
2.115805	661.033277	26.601000
2.113131	661.092640	26.701000
2.110121	661.407185	26.801000
2.109860	661.658235	26.901000
2.113075	661.103438	27.001000
2.116803	660.979791	27.101000
2.115182	661.197431	27.201000
2.110749	661.482328	27.301000
2.108823	661.615321	27.401000
2.111915	661.376925	27.501000
2.116083	661.104147	27.601000
2.115814	661.238344	27.701000
2.112320	661.424489	27.801000
2.109724	661.513928	27.901000
2.110662	661.539742	28.001000
2.114167	661.167992	28.101000
2.116597	660.990079	28.201000
2.114267	661.288910	28.301000
2.110273	661.500337	28.401000
2.109144	661.545703	28.501000
2.112661	661.278452	28.601000
2.116419	661.061167	28.701000
2.115378	660.972585	28.801000
2.111239	661.437000	28.901000
2.109530	661.552013	29.001000
2.111163	661.668585	29.101000
2.113894	661.327780	29.201000
2.115682	661.089534	29.301000
2.113693	661.287090	29.401000
2.110299	661.574983	29.501000
2.109439	661.606241	29.601000
2.112842	661.402857	29.701000
2.116321	660.981930	29.801000
2.115024	661.238546	29.901000
2.110679	661.513015	30.001000
2.108950	661.686560	30.101000
2.111828	661.426501	30.201000
2.115539	660.946871	30.301000
2.115528	661.144339	30.401000
2.112350	661.368267	30.501000
2.109341	661.625812	30.601000
2.109952	661.502527	30.701000
2.113844	661.312512	30.801000
2.116435	661.135173	30.901000
2.114419	661.115628	31.001000
2.110009	661.427458	31.101000
2.108983	661.585502	31.201000
2.112971	661.458492	31.301000
2.116075	661.042750	31.401000
2.114862	661.103423	31.501000
2.110895	661.479514	31.601000
2.109724	661.478436	31.701000
2.111541	661.430091	31.801000
2.114401	661.192272	31.901000
2.115703	661.044553	32.001000
2.113090	661.229467	32.101000
2.109340	661.530674	32.201000
2.109602	661.705501	32.301000
2.113236	661.404116	32.401000
2.116353	660.894319	32.501000
2.114374	661.115145	32.601000
2.110221	661.550204	32.701000
2.108837	661.795319	32.801000
2.111918	661.561086	32.901000
2.115334	661.089605	33.001000
2.115577	661.077822	33.101000
2.112311	661.416488	33.201000
2.109303	661.571465	33.301000
2.109482	661.639274	33.401000
2.114114	661.231476	33.501000
2.116618	661.120220	33.601000
2.113682	661.153649	33.701000
2.109050	661.654403	33.801000
2.109222	661.620626	33.901000
2.113321	661.377818	34.001000
2.116076	661.080076	34.101000
2.114293	661.208580	34.201000
2.110757	661.336789	34.301000
2.109326	661.672974	34.401000
2.111142	661.406191	34.501000
2.114566	661.321798	34.601000
2.115252	661.309606	34.701000
2.112774	661.363452	34.801000
2.109232	661.686898	34.901000
2.109693	661.527636	35.001000
2.113842	661.268549	35.101000
2.116048	660.943704	35.201000
2.113633	661.185874	35.301000
2.109843	661.437370	35.401000
2.109698	661.632916	35.501000
2.112520	661.344576	35.601000
2.114994	661.243627	35.701000
2.114959	661.248769	35.801000
2.111331	661.356868	35.901000
2.108852	661.738956	36.001000
2.110200	661.507118	36.101000
2.114323	661.274056	36.201000
2.116219	661.052449	36.301000
2.112618	661.383374	36.401000
2.108272	661.645199	36.501000
2.109520	661.666194	36.601000
2.113367	661.309327	36.701000
2.115723	661.239107	36.801000
2.113835	661.164529	36.901000
2.110226	661.469011	37.001000
2.108978	661.766965	37.101000
2.111352	661.529266	37.201000
2.114875	661.130662	37.301000
2.115088	661.219944	37.401000
2.111364	661.393967	37.501000
2.108248	661.716525	37.601000
2.110088	661.659769	37.701000
2.114361	661.243583	37.801000
2.115566	661.194804	37.901000
2.112431	661.486198	38.001000
2.109255	661.599830	38.101000
2.109405	661.484939	38.201000
2.112237	661.425828	38.301000
2.114939	661.074976	38.401000
2.114677	661.251658	38.501000
2.111235	661.484198	38.601000
2.108488	661.621795	38.701000
2.110221	661.647398	38.801000
2.114620	661.207766	38.901000
2.115744	661.166794	39.001000
2.112256	661.459616	39.101000
2.108446	661.755335	39.201000
2.109487	661.679366	39.301000
2.113455	661.344354	39.401000
2.115245	661.115738	39.501000
2.113723	661.402116	39.601000
2.110077	661.525953	39.701000
2.108837	661.603542	39.801000
2.111159	661.527879	39.901000
2.115292	660.994980	40.001000
2.115272	661.129256	40.101000
2.110922	661.534823	40.201000
2.108236	661.745477	40.301000
2.110403	661.561612	40.401000
2.114475	661.235360	40.501000
2.115236	661.257733	40.601000
2.112116	661.361520	40.701000
2.109547	661.564402	40.801000
2.109859	661.483753	40.901000
2.112461	661.360423	41.001000
2.114677	661.347445	41.101000
2.114330	661.108278	41.201000
2.110710	661.458530	41.301000
2.108348	661.694898	41.401000
2.110876	661.390337	41.501000
2.114832	661.171429	41.601000
2.115380	661.171992	41.701000
2.111322	661.579614	41.801000
2.108479	661.718006	41.901000
2.109938	661.702230	42.001000
2.113810	661.364495	42.101000
2.115072	661.187973	42.201000
2.113634	661.282817	42.301000
2.109753	661.708133	42.401000
2.108587	661.653626	42.501000
2.111723	661.599245	42.601000
2.115676	661.160465	42.701000
2.114873	661.169918	42.801000
2.110300	661.634333	42.901000
2.108085	661.776440	43.001000
2.110686	661.611024	43.101000
2.114844	661.172170	43.201000
2.115037	661.141695	43.301000
2.111707	661.362934	43.401000
2.108744	661.661547	43.501000
2.110007	661.519238	43.601000
2.112640	661.434556	43.701000
2.115161	661.209432	43.801000
2.113864	661.259242	43.901000
2.109924	661.611512	44.001000
2.108111	661.826945	44.101000
2.111217	661.538454	44.201000
2.114886	661.286421	44.301000
2.114584	661.226363	44.401000
2.110824	661.481252	44.501000
2.108587	661.768223	44.601000
2.110109	661.565094	44.701000
2.113211	661.376932	44.801000
2.115119	661.206543	44.901000
2.113204	661.307811	45.001000
2.109601	661.657124	45.101000
2.108152	661.649764	45.201000
2.111981	661.381220	45.301000
2.115620	661.209691	45.401000
2.114788	661.157353	45.501000
2.109855	661.523461	45.601000
2.107720	661.800293	45.701000
2.110990	661.636582	45.801000
2.114673	661.258575	45.901000
2.114690	661.177268	46.001000
