probe voltage (V), probe current (A), resistance (9.9e37 if not enabled) , timestamp , status word ,
-5.900000E+01,-4.687287E-06,+9.910000E+37,+8.827227E+02,+2.150800E+04,
-5.800000E+01,-4.691328E-06,+9.910000E+37,+8.837822E+02,+2.150800E+04,
-5.700000E+01,-4.645863E-06,+9.910000E+37,+8.848408E+02,+2.150800E+04,
-5.600000E+01,-4.559991E-06,+9.910000E+37,+8.859014E+02,+2.150800E+04,
-5.500000E+01,-4.470580E-06,+9.910000E+37,+8.869590E+02,+2.150800E+04,
-5.400000E+01,-4.359450E-06,+9.910000E+37,+8.880176E+02,+2.150800E+04,
-5.300000E+01,-4.253369E-06,+9.910000E+37,+8.890781E+02,+2.150800E+04,
-5.200000E+01,-4.133145E-06,+9.910000E+37,+8.901543E+02,+2.150800E+04,
-5.100000E+01,-4.004838E-06,+9.910000E+37,+8.912285E+02,+2.150800E+04,
-5.000000E+01,-3.877038E-06,+9.910000E+37,+8.922852E+02,+2.150800E+04,
-4.900000E+01,-3.735597E-06,+9.910000E+37,+8.933467E+02,+2.150800E+04,
-4.800000E+01,-3.604260E-06,+9.910000E+37,+8.944023E+02,+2.150800E+04,
-4.700000E+01,-3.453224E-06,+9.910000E+37,+8.954619E+02,+2.150800E+04,
-4.600000E+01,-3.301179E-06,+9.910000E+37,+8.965225E+02,+2.150800E+04,
-4.500000E+01,-3.147109E-06,+9.910000E+37,+8.975996E+02,+2.150800E+04,
-4.400000E+01,-2.981422E-06,+9.910000E+37,+8.986562E+02,+2.150800E+04,
-4.300000E+01,-2.817755E-06,+9.910000E+37,+8.997178E+02,+2.150800E+04,
-4.200000E+01,-2.642978E-06,+9.910000E+37,+9.007969E+02,+2.150800E+04,
-4.100000E+01,-2.464157E-06,+9.910000E+37,+9.018584E+02,+2.150800E+04,
-4.000000E+01,-2.280286E-06,+9.910000E+37,+9.029375E+02,+2.150800E+04,
-3.900000E+01,-2.089342E-06,+9.910000E+37,+9.039971E+02,+2.150800E+04,
-3.800000E+01,-1.895369E-06,+9.910000E+37,+9.050586E+02,+2.150800E+04,
-3.700000E+01,-1.698362E-06,+9.910000E+37,+9.061504E+02,+2.150800E+04,
-3.600000E+01,-1.494286E-06,+9.910000E+37,+9.072412E+02,+2.150800E+04,
-3.500000E+01,-1.285663E-06,+9.910000E+37,+9.082988E+02,+2.150800E+04,
-3.400000E+01,-1.076534E-06,+9.910000E+37,+9.093574E+02,+2.150800E+04,
-3.300000E+01,-8.699319E-07,+9.910000E+37,+9.104160E+02,+2.150800E+04,
-3.200000E+01,-6.567616E-07,+9.910000E+37,+9.114766E+02,+2.150800E+04,
-3.100000E+01,-4.491489E-07,+9.910000E+37,+9.125342E+02,+2.150800E+04,
-3.000000E+01,-2.551751E-07,+9.910000E+37,+9.136104E+02,+2.150800E+04,
-2.900000E+01,-6.978835E-08,+9.910000E+37,+9.146904E+02,+2.150800E+04,
-2.800000E+01,+1.080104E-07,+9.910000E+37,+9.157500E+02,+2.150800E+04,
-2.700000E+01,+2.868121E-07,+9.910000E+37,+9.168105E+02,+2.150800E+04,
-2.600000E+01,+4.837969E-07,+9.910000E+37,+9.178662E+02,+2.150800E+04,
-2.500000E+01,+6.903784E-07,+9.910000E+37,+9.189258E+02,+2.150800E+04,
-2.400000E+01,+8.818084E-07,+9.910000E+37,+9.199834E+02,+2.150800E+04,
-2.300000E+01,+1.060609E-06,+9.910000E+37,+9.210400E+02,+2.150800E+04,
-2.200000E+01,+1.222743E-06,+9.910000E+37,+9.221006E+02,+2.150800E+04,
-2.100000E+01,+1.349519E-06,+9.910000E+37,+9.231582E+02,+2.150800E+04,
-2.000000E+01,+1.453569E-06,+9.910000E+37,+9.242168E+02,+2.150800E+04,
-1.900000E+01,+1.499026E-06,+9.910000E+37,+9.252793E+02,+2.150800E+04,
-1.800000E+01,+1.544989E-06,+9.910000E+37,+9.263389E+02,+2.150800E+04,
-1.700000E+01,+1.586406E-06,+9.910000E+37,+9.274004E+02,+2.150800E+04,
-1.600000E+01,+1.658129E-06,+9.910000E+37,+9.284561E+02,+2.150800E+04,
-1.500000E+01,+1.736923E-06,+9.910000E+37,+9.295127E+02,+2.150800E+04,
-1.400000E+01,+1.839961E-06,+9.910000E+37,+9.305693E+02,+2.150800E+04,
-1.300000E+01,+1.961184E-06,+9.910000E+37,+9.316299E+02,+2.150800E+04,
-1.200000E+01,+2.096041E-06,+9.910000E+37,+9.327012E+02,+2.150800E+04,
-1.100000E+01,+2.246561E-06,+9.910000E+37,+9.337607E+02,+2.150800E+04,
-1.000000E+01,+2.411722E-06,+9.910000E+37,+9.348223E+02,+2.150800E+04,
-9.000000E+00,+2.589510E-06,+9.910000E+37,+9.358818E+02,+2.150800E+04,
-8.000000E+00,+2.805189E-06,+9.910000E+37,+9.369424E+02,+2.150800E+04,
-7.000000E+00,+3.051674E-06,+9.910000E+37,+9.380020E+02,+2.150800E+04,
-6.000000E+00,+3.378967E-06,+9.910000E+37,+9.390605E+02,+2.150800E+04,
-5.000000E+00,+3.800718E-06,+9.910000E+37,+9.401230E+02,+2.150800E+04,
-4.000000E+00,+4.408339E-06,+9.910000E+37,+9.411816E+02,+2.150800E+04,
-3.000000E+00,+5.228598E-06,+9.910000E+37,+9.422422E+02,+2.150800E+04,
-2.000000E+00,+6.351417E-06,+9.910000E+37,+9.433008E+02,+2.150800E+04,
-1.000000E+00,+7.852039E-06,+9.91000

current through plasma (-mA) <tab> voltage across plasma (-V) <tab> time (sec)
1.606254	721.224481	0.001000
1.614218	720.770132	0.101000
1.612377	720.813276	0.201000
1.605145	721.343509	0.301000
1.608777	721.194311	0.401000
1.613913	720.676934	0.501000
1.604926	721.306486	0.601000
1.605653	721.447782	0.701000
1.614982	720.644062	0.801000
1.609943	720.943306	0.901000
1.604493	721.521412	1.001000
1.615656	720.581046	1.101000
1.615672	720.498801	1.201000
1.606861	721.226572	1.302000
1.612550	720.822989	1.401000
1.618729	720.319946	1.501000
1.605338	721.312563	1.601000
1.608196	721.185686	1.701000
1.614180	720.566187	1.802000
1.609987	720.905523	1.901000
1.601236	721.752761	2.001000
1.613761	720.691646	2.101000
1.611962	720.787346	2.201000
1.600073	721.626184	2.301000
1.609920	721.096584	2.401000
1.614994	720.592186	2.501000
1.603827	721.328207	2.601000
1.610016	721.093225	2.701000
1.614272	720.654503	2.801000
1.605359	721.264432	2.901000
1.604597	721.451236	3.001000
1.612809	720.798620	3.101000
1.612365	720.755698	3.201000
1.602395	721.538742	3.301000
1.609672	721.120357	3.401000
1.613672	720.612655	3.501000
1.604922	721.276642	3.601000
1.606763	721.305348	3.701000
1.614598	720.621715	3.802000
1.605929	721.254351	3.902000
1.607522	721.120035	4.001000
1.617251	720.494088	4.101000
1.613268	720.705736	4.201000
1.603643	721.423166	4.301000
1.611036	721.007506	4.401000
1.612766	720.735489	4.501000
1.605211	721.254215	4.601000
1.609853	721.061119	4.701000
1.618498	720.331515	4.801000
1.606527	721.108104	4.901000
1.606074	721.265548	5.001000
1.615311	720.666911	5.101000
1.611375	720.807719	5.201000
1.604895	721.253987	5.301000
1.613054	720.797823	5.401000
1.614967	720.564487	5.501000
1.602825	721.455827	5.601000
1.608394	721.088924	5.701000
1.617402	720.517141	5.803000
1.607304	721.084553	5.901000
1.605715	721.226099	6.001000
1.617330	720.523019	6.101000
1.609235	720.964199	6.201000
1.605881	721.165645	6.301000
1.615545	720.674706	6.401000
1.614973	720.571771	6.501000
1.602724	721.405312	6.601000
1.608869	721.024306	6.701000
1.618656	720.402543	6.801000
1.603018	721.462870	6.901000
1.610091	720.930950	7.001000
1.620914	720.202131	7.101000
1.609928	720.896058	7.201000
1.603873	721.331471	7.301000
1.615054	720.585109	7.401000
1.613706	720.746019	7.501000
1.605491	721.223600	7.601000
1.610711	720.839813	7.701000
1.615864	720.668494	7.801000
1.606198	721.191075	7.901000
1.605561	721.210039	8.001000
1.615984	720.614222	8.101000
1.608843	721.033449	8.201000
1.604705	721.224524	8.301000
1.614844	720.557333	8.401000
1.613767	720.728192	8.501000
1.602056	721.483375	8.601000
1.611379	720.840521	8.701000
1.615513	720.612735	8.801000
1.607782	721.071863	8.901000
1.606080	721.140799	9.001000
1.617561	720.379476	9.101000
1.607337	721.219137	9.201000
1.605511	721.220471	9.301000
1.614245	720.564911	9.401000
1.613542	720.703344	9.501000
1.604659	721.334318	9.601000
1.611268	720.802239	9.701000
1.617667	720.381839	9.801000
1.605376	721.376916	9.901000
1.610455	720.879443	10.001000
1.618617	720.307461	10.101000
1.607816	721.167982	10.201000
1.604351	721.291204	10.301000
1.615958	720.471335	10.401000
1.611049	720.863527	10.501000
1.606580	721.277882	10.601000
1.612967	720.672747	10.701000
1.614057	720.573744	10.801000
1.608364	721.167681	10.901000
1.607847	721.109510	11.001000
1.616544	720.386219	11.101000
1.609324	721.038344	11.201000
1.606331	721.223922	11.301000
1.619812	720.168622	11.401000
1.611614	720.819634	11.501000
1.606361	721.267830	11.601000
1.613671	720.614499	11.701000
1.616277	720.442791	11.801000
1.605680	721.341818	11.901000
1.609859	720.903831	12.001000
1.615916	720.485834	12.101000
1.606777	721.153860	12.202000
1.607458	721.243228	12.301000
1.615333	720.502968	12.401000
1.609862	720.837796	12.501000
1.607217	721.241164	12.601000
1.615284	720.530423	12.701000
1.611351	720.761432	12.801000
1.605878	721.337325	12.901000
1.610623	720.877280	13.001000
1.617329	720.317219	13.101000
1.604126	721.355524	13.201000
1.609369	721.029593	13.301000
1.617008	720.351209	13.401000
1.609553	720.951740	13.501000
1.605900	721.343931	13.601000
1.614410	720.573045	13.701000
1.611884	720.706547	13.801000
1.606936	721.072669	13.901000
1.613864	720.746650	14.001000
1.614901	720.560224	14.101000
1.605604	721.140170	14.201000
1.610929	720.924207	14.301000
1.618905	720.197822	14.401000
1.608054	721.014634	14.502000
1.607323	721.131468	14.601000
1.618085	720.379889	14.701000
1.614997	720.480313	14.801000
1.605075	721.231134	14.901000
1.614388	720.693619	15.001000
1.618411	720.205213	15.101000
1.607755	721.015426	15.201000
1.611388	720.792161	15.301000
1.618536	720.383817	15.401000
1.607037	721.033568	15.501000
1.607622	721.024082	15.601000
1.618965	720.330313	15.701000
1.609855	720.901837	15.801000
1.603383	721.396088	15.901000
1.615321	720.489333	16.001000
1.615653	720.539425	16.101000
1.604435	721.278411	16.202000
1.610361	720.843127	16.301000
1.617182	720.491669	16.401000
1.606164	721.158490	16.501000
1.607771	721.011420	16.601000
1.616923	720.486582	16.701000
1.609389	720.949998	16.801000
1.605864	721.124733	16.901000
1.614572	720.547952	17.001000
1.613760	720.766267	17.101000
1.603676	721.342394	17.201000
1.614407	720.502432	17.301000
1.617088	720.406472	17.405000
1.606748	721.149095	17.502000
1.609225	720.941328	17.601000
1.619221	720.211581	17.701000
1.608357	721.078540	17.801000
1.607553	720.987042	17.901000
1.618794	720.234017	18.001000
1.612166	720.829283	18.101000
1.605392	721.153453	18.201000
1.616756	720.352845	18.301000
1.615268	720.499986	18.401000
1.605237	721.306550	18.501000
1.609990	720.816191	18.601000
1.616302	720.343658	18.701000
1.607955	721.115330	18.801000
1.607096	721.150618	18.901000
1.617522	720.295615	19.001000
1.612945	720.572951	19.101000
1.605925	721.265394	19.201000
1.616348	720.419396	19.301000
1.613615	720.598036	19.402000
1.604765	721.247091	19.501000
1.611648	720.830600	19.601000
1.618631	720.212001	19.702000
1.606215	721.110459	19.801000
1.607903	721.143903	19.901000
1.616582	720.376741	20.001000
1.609794	720.836267	20.102000
1.605282	721.193204	20.201000
1.617347	720.450319	20.301000
1.613805	720.522044	20.401000
1.605983	721.096462	20.501000
1.612851	720.636937	20.601000
1.616931	720.475068	20.701000
1.608121	720.962962	20.801000
1.610355	720.768784	20.902000
1.619923	720.033588	21.001000
1.610368	720.931187	21.101000
1.607419	721.065194	21.201000
1.616794	720.311885	21.301000
1.614539	720.444868	21.401000
1.606122	721.242584	21.502000
1.616204	720.382272	21.601000
1.617055	720.258771	21.701000
1.605259	721.116885	21.801000
1.612393	720.778302	21.901000
1.618278	720.238772	22.001000
1.610349	720.760478	22.101000
1.609271	720.835148	22.201000
1.619491	720.240358	22.301000
1.613477	720.607893	22.401000
1.604481	721.214261	22.501000
1.616075	720.357827	22.601000
1.616412	720.460442	22.701000
1.606330	721.084635	22.801000
1.610924	720.729943	22.901000
1.619539	720.061056	23.001000
1.608847	721.025028	23.101000
1.608440	720.924039	23.201000
1.619532	720.091306	23.301000
1.611512	720.694067	23.402000
1.606417	721.154850	23.501000
1.616011	720.382228	23.601000
1.615065	720.432729	23.701000
1.606438	721.069162	23.801000
1.614008	720.669373	23.901000
1.618901	720.131040	24.001000
1.607553	720.920291	24.101000
1.609197	720.937791	24.206000
1.618987	720.290146	24.301000
1.612209	720.633936	24.401000
1.606522	721.006112	24.501000
1.617381	720.279002	24.601000
1.615082	720.572984	24.701000
1.606320	721.092594	24.801000
1.614795	720.407097	24.901000
1.617922	720.182526	25.001000
1.608744	721.013111	25.101000
1.610875	720.741712	25.201000
1.619807	720.029522	25.301000
1.608973	720.849107	25.401000
1.607518	721.151181	25.502000
1.617970	720.196617	25.601000
1.614978	720.381133	25.701000
1.606180	721.000174	25.801000
1.616118	720.501098	25.901000
1.616210	720.399224	26.001000
1.606447	721.111352	26.101000
1.611338	720.751488	26.201000
1.620125	720.134206	26.302000
1.610166	720.748321	26.403000
1.609149	720.894935	26.501000
1.618269	720.192058	26.601000
1.612886	720.662789	26.701000
1.605720	721.074972	26.801000
1.617733	720.167500	26.901000
1.616862	720.286293	27.001000
1.607147	721.093787	27.101000
1.613821	720.519291	27.201000
1.618762	720.192390	27.301000
1.609268	720.841752	27.401000
1.610175	720.869312	27.502000
1.620141	720.013276	27.601000
1.612426	720.589512	27.702000
1.606655	721.117622	27.801000
1.618708	720.283448	27.901000
1.616541	720.254703	28.001000
1.606261	721.000709	28.101000
1.616018	720.406689	28.201000
1.618886	720.245986	28.301000
1.607451	720.952710	28.401000
1.612137	720.662779	28.501000
1.620745	720.079577	28.601000
1.609955	720.764039	28.701000
1.607640	720.907112	28.801000
1.619562	720.051719	28.902000
1.614710	720.568734	29.001000
1.606000	721.088807	29.101000
1.616659	720.254853	29.201000
1.617336	720.179971	29.301000
1.607515	721.052648	29.401000
1.613115	720.566848	29.501000
1.619985	720.021915	29.601000
1.609265	720.798065	29.701000
1.610124	720.842601	29.801000
1.619565	720.062458	29.901000
1.613999	720.455633	30.001000
1.607624	720.960493	30.101000
1.618366	720.280168	30.201000
1.616173	720.292146	30.301000
1.606201	721.009941	30.401000
1.614925	720.411109	30.501000
1.620027	720.113661	30.601000
1.609272	720.798911	30.701000
1.611118	720.680725	30.801000
1.620059	720.020362	30.901000
1.611724	720.764807	31.001000
1.608760	720.784683	31.101000
1.618959	720.050397	31.201000
1.615876	720.296080	31.302000
1.607661	721.078837	31.401000
1.615968	720.299856	31.501000
1.617819	720.138876	31.601000
1.608071	720.865112	31.701000
1.613256	720.662115	31.801000
1.620780	719.982914	31.901000
1.611128	720.610464	32.001000
1.607799	720.880283	32.101000
1.619817	720.159717	32.201000
1.614798	720.392671	32.301000
1.606261	720.979706	32.401000
1.616714	720.239225	32.501000
1.618464	720.271791	32.602000
1.607037	720.980940	32.701000
1.612264	720.517223	32.801000
1.619689	719.995006	32.901000
1.611193	720.800754	33.001000
1.608770	720.849852	33.101000
1.619653	720.033764	33.201000
1.612495	720.527634	33.302000
1.608226	720.946098	33.401000
1.617206	720.234968	33.501000
1.617903	720.138416	33.601000
1.607741	720.881860	33.701000
1.616167	720.415388	33.801000
1.619913	720.007741	33.901000
1.609557	720.749861	34.001000
1.610640	720.663478	34.101000
1.621977	719.962754	34.201000
1.614135	720.430751	34.301000
1.607591	720.884397	34.401000
1.618453	720.094256	34.501000
1.616678	720.330156	34.601000
1.608223	720.805286	34.701000
1.615875	720.223116	34.801000
1.619735	720.044698	34.901000
1.609807	720.895025	35.001000
1.612212	720.555031	35.101000
1.620593	719.917515	35.201000
1.611591	720.589230	35.301000
1.610324	720.846343	35.401000
1.620155	720.002833	35.501000
1.615718	720.226288	35.601000
1.606808	720.944261	35.701000
1.617175	720.306004	35.801000
1.618329	720.093982	35.901000
1.608353	720.798549	36.001000
1.613591	720.447114	36.101000
1.622025	719.958059	36.201000
1.610606	720.680504	36.301000
1.609465	720.697829	36.401000
1.619492	719.980747	36.501000
1.615716	720.394662	36.601000
1.607928	720.884295	36.701000
1.619142	720.024561	36.801000
1.618291	720.036537	36.901000
1.608774	720.905079	37.002000
1.614954	720.347408	37.101000
1.620402	719.915713	37.201000
1.609900	720.688310	37.301000
1.613618	720.580797	37.401000
1.621348	719.866996	37.501000
1.612902	720.445402	37.601000
1.609733	720.684550	37.701000
1.621517	719.923618	37.801000
1.617132	720.218621	37.901000
1.607390	720.887937	38.001000
1.616828	720.165115	38.101000
1.619711	720.009646	38.201000
1.608756	720.790771	38.301000
1.613669	720.439461	38.402000
1.621496	719.874804	38.501000
1.612395	720.617057	38.601000
1.609935	720.682826	38.701000
1.620384	719.900107	38.801000
1.615097	720.314120	38.901000
1.608890	720.867722	39.001000
1.618927	720.046832	39.101000
1.618722	719.989590	39.201000
1.608065	720.828483	39.301000
1.614960	720.455969	39.401000
1.620395	719.937305	39.501000
1.610422	720.636826	39.601000
1.611810	720.520199	39.701000
1.621722	719.952255	39.801000
1.613745	720.419199	39.901000
1.609093	720.701254	40.001000
1.619553	719.954300	40.101000
1.618504	720.129594	40.203000
1.609209	720.782162	40.301000
1.617517	720.083383	40.401000
1.621435	719.797256	40.501000
1.610386	720.738506	40.601000
1.613202	720.486395	40.701000
1.621881	719.797315	40.801000
1.613688	720.387696	40.901000
1.610719	720.730965	41.001000
1.621185	719.890618	41.101000
1.616172	720.139085	41.201000
1.608515	720.751703	41.301000
1.618501	720.120322	41.401000
1.620411	719.956082	41.501000
1.609702	720.715992	41.602000
1.614447	720.276624	41.701000
1.622587	719.818439	41.801000
1.611460	720.549472	41.901000
1.611093	720.579832	42.001000
1.621382	719.831920	42.101000
1.616152	720.304855	42.201000
1.609485	720.670575	42.301000
1.619274	719.961938	42.401000
1.618352	720.032711	42.501000
1.610118	720.775855	42.601000
1.616498	720.166879	42.701000
1.621928	719.779171	42.801000
1.610625	720.605403	42.901000
1.613642	720.537490	43.001000
1.621225	719.798491	43.101000
1.613949	720.348791	43.201000
1.610047	720.672431	43.301000
1.622507	719.849221	43.401000
1.617826	720.043082	43.501000
1.609017	720.664963	43.601000
1.617836	720.120383	43.701000
1.621562	719.947098	43.803000
1.610610	720.593015	43.901000
1.616161	720.165221	44.001000
1.622831	719.693115	44.101000
1.612898	720.570861	44.201000
1.611258	720.574496	44.301000
1.621730	719.761987	44.401000
1.617366	720.145994	44.501000
1.609962	720.804156	44.601000
1.619683	719.903360	44.701000
1.619851	719.884073	44.802000
1.609458	720.702652	44.902000
1.615501	720.377160	45.001000
1.621743	719.813293	45.101000
1.612662	720.399465	45.201000
1.612922	720.515792	45.301000
1.621793	719.737737	45.401000
1.616187	720.188638	45.501000
1.608358	720.806239	45.601000
1.619989	720.042789	45.701000
1.620793	719.823231	45.801000
1.610026	720.613847	45.901000
1.615114	720.296623	46.001000
1.623397	719.806322	46.101000
1.612560	720.464960	46.201000
1.612162	720.470058	46.301000
1.623167	719.657388	46.401000
1.616809	720.283764	46.501000
1.609737	720.604287	46.601000
1.620477	719.841541	46.702000
1.619928	719.909315	46.802000
1.610369	720.789724	46.902000
1.616805	720.125128	47.001000
1.623207	719.591752	47.101000
1.611637	720.483763	47.201000
1.613683	720.551278	47.301000
1.623364	719.672102	47.401000
1.615295	720.211374	47.501000
1.611290	720.515454	47.601000
1.622709	719.844345	47.701000
1.619656	719.937280	47.801000
1.609323	720.659334	47.901000
1.618136	720.014984	48.001000
1.623490	719.746596	48.101000
1.611285	720.545686	48.201000
1.614519	720.294249	48.301000
1.623768	719.608424	48.401000
1.614237	720.373095	48.502000
1.610652	720.617127	48.601000
1.622317	719.703392	48.701000
1.618928	719.977452	48.801000
1.610665	720.576103	48.901000
1.618814	719.981074	49.002000
1.621050	719.785885	49.101000
1.610312	720.655647	49.201000
1.616046	720.313942	49.301000
1.623652	719.548217	49.401000
1.614210	720.279939	49.501000
1.612063	720.562091	49.601000
1.622374	719.794589	49.701000
1.617118	720.031781	49.801000
1.610003	720.613945	49.901000
1.620747	719.885785	50.001000
1.622654	719.771096	50.101000
1.611301	720.482384	50.201000
1.616049	720.125533	50.302000
1.623730	719.678093	50.401000
1.613284	720.442835	50.501000
1.613297	720.320872	50.601000
1.624019	719.493155	50.701000
1.617770	720.034338	50.801000
1.611425	720.614751	50.902000
1.620937	719.786288	51.001000
1.620553	719.764510	51.101000
1.611452	720.487490	51.201000
1.618672	720.072641	51.301000
1.623000	719.635165	51.401000
1.612057	720.390269	51.501000
1.614867	720.285502	51.606000
1.624557	719.707136	51.701000
1.616127	720.087595	51.801000
1.611385	720.424977	51.901000
1.622377	719.685291	52.001000
1.619314	719.987504	52.102000
1.609803	720.631477	52.201000
1.618950	719.890751	52.301000
1.623624	719.569154	52.401000
1.612602	720.447109	52.501000
1.615836	720.159319	52.601000
1.623119	719.636724	52.701000
1.614512	720.276143	52.801000
1.612381	720.465645	52.901000
1.623993	719.523595	53.002000
1.619148	719.816288	53.101000
1.610985	720.526318	53.201000
1.620434	719.887637	53.301000
1.621684	719.691913	53.401000
1.611086	720.479150	53.501000
1.617028	720.123834	53.601000
1.625054	719.492226	53.701000
1.614808	720.107343	53.801000
1.613046	720.293260	53.901000
1.623779	719.625931	54.001000
1.618134	720.030574	54.101000
1.611299	720.372856	54.201000
1.622444	719.554131	54.301000
1.622182	719.665501	54.401000
1.612044	720.492743	54.501000
1.617900	719.975756	54.602000
1.624027	719.453195	54.701000
1.614218	720.416311	54.801000
1.615418	720.193316	54.901000
1.624660	719.451867	55.001000
1.617354	720.065701	55.101000
1.612043	720.524502	55.201000
1.621985	719.701084	55.301000
1.620596	719.797160	55.401000
1.611633	720.540786	55.501000
1.619897	719.776642	55.601000
1.623186	719.604200	55.701000
1.612082	720.524783	55.802000
1.615939	720.256637	55.901000
1.624691	719.400565	56.001000
1.615948	720.094056	56.101000
1.613913	720.413847	56.203000
1.624227	719.506088	56.301000
1.618732	719.836709	56.401000
1.612306	720.454765	56.501000
1.621011	719.776516	56.601000
1.623171	719.526038	56.701000
1.613013	720.339757	56.801000
1.618154	720.013974	56.901000
1.624865	719.434758	57.001000
1.614942	720.109743	57.102000
1.614704	720.288847	57.201000
1.624822	719.467643	57.301000
1.619311	719.762179	57.401000
1.613012	720.369114	57.501000
1.622543	719.789101	57.601000
1.622385	719.584097	57.701000
1.613005	720.288938	57.801000
1.620526	719.904401	57.902000
1.624948	719.413289	58.001000
1.614082	720.190797	58.101000
1.616435	720.212097	58.201000
1.624653	719.454636	58.301000
1.617105	719.976701	58.401000
1.613842	720.405193	58.501000
1.624244	719.505199	58.601000
1.621118	719.690802	58.701000
1.612231	720.482278	58.801000
1.619789	719.895011	58.901000
1.623802	719.476997	59.002000
1.613475	720.315051	59.101000
1.617930	720.007646	59.201000
1.625350	719.464169	59.301000
1.616222	720.077961	59.401000
1.614288	720.258086	59.502000
1.624300	719.394070	59.601000
1.619865	719.816147	59.701000
1.613358	720.428830	59.801000
1.622976	719.559892	59.901000
1.622878	719.513527	60.001000
1.613399	720.446185	60.101000
1.619149	719.888375	60.201000
1.625467	719.372264	60.301000
1.616075	720.030854	60.401000
1.616552	719.989274	60.502000
1.625376	719.453075	60.602000
1.618647	719.913657	60.701000
1.614209	720.303681	60.801000
1.624718	719.410324	60.901000
1.622470	719.553157	61.001000
1.613414	720.418275	61.101000
1.621397	719.762261	61.201000
1.624460	719.420704	61.301000
1.615044	720.208059	61.401000
1.617152	720.040241	61.501000
1.626389	719.284179	61.601000
1.618140	720.071920	61.701000
1.614175	720.189236	61.808000
1.624948	719.367153	61.901000
1.621005	719.853315	62.001000
1.613219	720.262199	62.101000
1.622688	719.510291	62.201000
1.624179	719.619060	62.301000
1.613447	720.380012	62.401000
1.617782	719.868697	62.501000
1.625654	719.194192	62.601000
1.617367	719.992276	62.701000
1.616258	720.065382	62.810000
1.625936	719.308114	62.901000
1.619839	719.764888	63.001000
1.613060	720.242508	63.101000
1.622859	719.476612	63.201000
1.623301	719.456756	63.301000
1.614651	720.240298	63.401000
1.621033	719.637785	63.501000
1.626169	719.202320	63.601000
1.615875	720.150653	63.701000
1.616295	720.017593	63.801000
1.626485	719.208689	63.901000
1.620073	719.746284	64.001000
1.615499	720.199654	64.101000
1.624793	719.296168	64.201000
1.622898	719.455272	64.301000
1.613509	720.324974	64.401000
1.621987	719.483518	64.501000
1.626469	719.177623	64.601000
1.615254	720.172736	64.701000
1.618236	719.935643	64.801000
1.626146	719.214372	64.901000
1.617163	719.902277	65.001000
